# Region:            O1s (54)
# Acquisition Date:  11/11/19 17:15:10 UTC
# Analysis Method:   XPS
# Analyzer:          Phoibos
# Analyzer Lens:     MediumArea:1.5kV
# Analyzer Slit:     4:3x20\B:open
# Scan Mode:         FixedAnalyzerTransmission
# Curves/Scan:       1
# Values/Curve:      211
# Dwell Time:        0.1
# Excitation Energy: 1486.71
# Binding Energy:    541
# Pass Energy:       10
# Bias Voltage:      90
# Detector Voltage:  1900
# Eff. Workfunction: 4.395
# Source:            Focus
# Comment:           45 grados
#
# Cycle: 0
# Number of Scans: 8
#
# Cycle: 0, Curve: 0
# Acquisition Date: 11/11/19 17:15:10 UTC
#
# ColumnLabels: energy counts/s
#
541  379.65201
540.9  356.56384
540.8  396.39644
540.7  416.87361
540.6  362.11242
540.5  421.79362
540.4  412.66137
540.3  384.82547
540.2  368.75701
540.1  382.36055
540  402.89601
539.9  381.07436
539.8  415.13979
539.7  397.11158
539.6  385.56066
539.5  388.56271
539.4  374.54146
539.3  363.53645
539.2  365.17517
539.1  355.11167
539  384.04464
538.9  372.48704
538.8  394.14954
538.7  387.6315
538.6  400.70168
538.5  392.21997
538.4  357.75575
538.3  393.57384
538.2  365.00061
538.1  360.66147
538  358.12179
537.9  355.17004
537.8  368.8477
537.7  380.07767
537.6  373.64184
537.5  384.73196
537.4  368.95236
537.3  390.57763
537.2  374.20995
537.1  372.01909
537  373.30385
536.9  389.35644
536.8  383.90724
536.7  361.97343
536.6  358.14797
536.5  364.26412
536.4  346.06582
536.3  360.73036
536.2  371.49211
536.1  365.89607
536  359.66688
535.9  336.71036
535.8  338.85103
535.7  358.88997
535.6  392.86815
535.5  369.02582
535.4  391.48894
535.3  347.24415
535.2  370.78515
535.1  377.12179
535  370.37949
534.9  377.45393
534.8  383.69246
534.7  372.7153
534.6  409.4474
534.5  377.10299
534.4  374.42341
534.3  421.37368
534.2  472.37622
534.1  436.25588
534  478.94152
533.9  501.22725
533.8  506.53729
533.7  524.92415
533.6  607.81382
533.5  620.69453
533.4  749.3403
533.3  770.06973
533.2  927.0976
533.1  895.53695
533  1014.064
532.9  1083.4806
532.8  1192.3049
532.7  1248.0417
532.6  1295.2956
532.5  1420.6355
532.4  1488.6174
532.3  1591.8811
532.2  1674.8688
532.1  1704.7748
532  1775.2656
531.9  1787.761
531.8  1752.5941
531.7  1745.0805
531.6  1685.6059
531.5  1644.3328
531.4  1466.3097
531.3  1269.9285
531.2  1202.52
531.1  1059.8337
531  868.11974
530.9  703.97471
530.8  591.29774
530.7  534.36057
530.6  454.39793
530.5  425.59108
530.4  378.99096
530.3  359.44848
530.2  298.10839
530.1  340.6443
530  352.47935
529.9  380.54054
529.8  318.66714
529.7  360.551
529.6  352.24938
529.5  344.97321
529.4  321.80342
529.3  355.98245
529.2  354.9519
529.1  357.60532
529  303.1603
528.9  322.93468
528.8  349.19083
528.7  317.06318
528.6  308.62381
528.5  334.3774
528.4  326.25543
528.3  308.26253
528.2  310.9499
528.1  294.78424
528  308.70991
527.9  302.91043
527.8  340.22258
527.7  328.89056
527.6  302.67444
527.5  309.49355
527.4  323.08264
527.3  287.94264
527.2  321.23224
527.1  319.89166
527  320.72715
526.9  332.23411
526.8  333.71248
526.7  344.79113
526.6  338.91978
526.5  303.16818
526.4  293.69703
526.3  303.04896
526.2  315.23829
526.1  299.56501
526  329.42661
525.9  315.1596
525.8  329.36725
525.7  302.30526
525.6  323.20647
525.5  311.74506
525.4  312.41845
525.3  327.1214
525.2  303.30234
525.1  317.95043
525  338.37209
524.9  301.20888
524.8  320.74545
524.7  309.9584
524.6  323.06732
524.5  299.88452
524.4  313.21375
524.3  298.71331
524.2  312.17726
524.1  314.51416
524  318.63262
523.9  306.51137
523.8  292.18146
523.7  332.75819
523.6  301.06025
523.5  282.41081
523.4  318.31208
523.3  333.08949
523.2  309.19205
523.1  309.11986
523  311.74629
522.9  329.94022
522.8  335.94106
522.7  311.07667
522.6  301.43801
522.5  329.43896
522.4  328.1473
522.3  295.51538
522.2  286.53704
522.1  290.01428
522  314.0445
521.9  298.82001
521.8  303.21242
521.7  305.43846
521.6  354.26946
521.5  328.76649
521.4  278.68807
521.3  298.29469
521.2  310.84297
521.1  304.21934
521  303.19223
520.9  303.82957
520.8  310.85148
520.7  297.9469
520.6  298.19067
520.5  310.30318
520.4  301.23333
520.3  328.34893
520.2  333.30996
520.1  310.08078
520  344.07515