# Region:            O1s (8)
# Acquisition Date:  11/08/19 01:48:24 UTC
# Analysis Method:   XPS
# Analyzer:          Phoibos
# Analyzer Lens:     MediumArea:1.5kV
# Analyzer Slit:     4:3x20\B:open
# Scan Mode:         FixedAnalyzerTransmission
# Curves/Scan:       1
# Values/Curve:      211
# Dwell Time:        0.1
# Excitation Energy: 1486.71
# Binding Energy:    541
# Pass Energy:       10
# Bias Voltage:      90
# Detector Voltage:  1900
# Eff. Workfunction: 4.395
# Source:            Focus
# Comment:           medicion angular alta resolucion 15 grados
#
# Cycle: 0
# Number of Scans: 8
#
# Cycle: 0, Curve: 0
# Acquisition Date: 11/08/19 01:48:24 UTC
#
# ColumnLabels: energy counts/s
#
541  544.51345
540.9  532.32019
540.8  521.67616
540.7  529.99379
540.6  516.52173
540.5  508.27584
540.4  495.83673
540.3  474.2652
540.2  490.52307
540.1  508.57765
540  545.6961
539.9  453.94128
539.8  505.45604
539.7  486.88071
539.6  502.63281
539.5  513.08426
539.4  474.44164
539.3  515.20359
539.2  498.97516
539.1  475.97715
539  466.52847
538.9  468.24866
538.8  504.91205
538.7  484.00255
538.6  497.78772
538.5  458.65715
538.4  476.12739
538.3  444.05238
538.2  464.48424
538.1  477.63295
538  476.28232
537.9  453.45163
537.8  444.82516
537.7  482.58257
537.6  482.42115
537.5  465.57301
537.4  498.98131
537.3  488.74786
537.2  512.83671
537.1  510.32604
537  535.6553
536.9  560.51314
536.8  614.26171
536.7  591.35503
536.6  625.7475
536.5  673.53437
536.4  729.39676
536.3  786.65894
536.2  885.80707
536.1  988.28262
536  1143.0431
535.9  1390.85
535.8  1591.2767
535.7  1846.413
535.6  2254.54
535.5  2570.0014
535.4  3063.6315
535.3  3635.1622
535.2  4298.5565
535.1  4975.8892
535  5732.3418
534.9  6399.2251
534.8  7146.1338
534.7  7965.7222
534.6  8560.4962
534.5  9169.0873
534.4  9650.1017
534.3  9983.8272
534.2  10263.141
534.1  10251.795
534  10070.884
533.9  9427.0937
533.8  9093.3669
533.7  8386.7921
533.6  7499.2641
533.5  6829.6666
533.4  5896.2787
533.3  5023.8356
533.2  4384.0683
533.1  3621.5727
533  2994.8113
532.9  2486.6887
532.8  2060.2255
532.7  1783.5906
532.6  1485.1781
532.5  1239.7646
532.4  1093.6722
532.3  956.56835
532.2  816.80643
532.1  757.08
532  701.41321
531.9  661.7732
531.8  579.26866
531.7  578.15802
531.6  581.3253
531.5  549.05595
531.4  535.51429
531.3  519.97267
531.2  497.96932
531.1  470.28869
531  430.01097
530.9  445.81964
530.8  438.6881
530.7  485.84497
530.6  453.50573
530.5  456.0609
530.4  431.86511
530.3  470.93386
530.2  446.51115
530.1  427.13261
530  457.42287
529.9  447.50564
529.8  452.96799
529.7  411.01536
529.6  411.10925
529.5  396.50796
529.4  407.99611
529.3  432.81842
529.2  426.46183
529.1  436.10736
529  388.12485
528.9  415.51244
528.8  424.56734
528.7  412.84191
528.6  408.45293
528.5  406.03912
528.4  415.61413
528.3  407.84667
528.2  403.64252
528.1  414.77104
528  409.57271
527.9  400.28268
527.8  416.50431
527.7  427.18583
527.6  390.1069
527.5  369.21939
527.4  381.86149
527.3  383.41106
527.2  373.36775
527.1  384.74538
527  363.09204
526.9  373.84033
526.8  396.61486
526.7  390.22658
526.6  373.88413
526.5  400.98177
526.4  380.17645
526.3  377.28488
526.2  361.22614
526.1  370.82306
526  397.21383
525.9  410.6542
525.8  384.47486
525.7  394.63128
525.6  395.74087
525.5  431.01239
525.4  379.97793
525.3  399.83045
525.2  361.85451
525.1  413.11795
525  399.50117
524.9  390.45013
524.8  414.29322
524.7  425.32881
524.6  352.83229
524.5  365.83725
524.4  376.67391
524.3  378.60047
524.2  354.10476
524.1  354.76944
524  384.66302
523.9  394.61535
523.8  418.1657
523.7  387.35805
523.6  379.56654
523.5  431.94965
523.4  371.36539
523.3  352.56833
523.2  355.70619
523.1  357.8783
523  407.76558
522.9  399.47325
522.8  386.05201
522.7  383.32186
522.6  395.94718
522.5  414.08504
522.4  384.34465
522.3  384.60649
522.2  380.29373
522.1  364.98608
522  360.93469
521.9  349.7896
521.8  399.97526
521.7  432.67354
521.6  402.91754
521.5  374.5158
521.4  389.71648
521.3  379.55412
521.2  394.33556
521.1  387.1053
521  398.52618
520.9  345.40312
520.8  392.00224
520.7  379.37526
520.6  395.55646
520.5  355.24204
520.4  401.40752
520.3  386.99666
520.2  381.24375
520.1  412.68432
520  397.4279