# Region:            Survey 200s 3k 36uA H=5 (3)
# Acquisition Date:  11/07/19 21:33:33 UTC
# Analysis Method:   XPS
# Analyzer:          Phoibos
# Analyzer Lens:     MediumArea:1.5kV
# Analyzer Slit:     4:3x20\B:open
# Scan Mode:         FixedAnalyzerTransmission
# Curves/Scan:       1
# Values/Curve:      1301
# Dwell Time:        0.1
# Excitation Energy: 1486.71
# Binding Energy:    1300
# Pass Energy:       50
# Bias Voltage:      90
# Detector Voltage:  1900
# Eff. Workfunction: 4.395
# Source:            Focus
# Comment:           
#
# Cycle: 0
# Number of Scans: 2
#
# Cycle: 0, Curve: 0
# Acquisition Date: 11/07/19 21:33:33 UTC
#
# ColumnLabels: energy counts/s
#
1300  15451.497
1299  15538.22
1298  15412.107
1297  15177.17
1296  14937.538
1295  15387.183
1294  15362.26
1293  15312.959
1292  15611.402
1291  15192.971
1290  15327.042
1289  15289.096
1288  15385.343
1287  14700.166
1286  15296.281
1285  14775.26
1284  14849.508
1283  15042.499
1282  14918.121
1281  15524.783
1280  15109.765
1279  15322.636
1278  15324.077
1277  14862.906
1276  15152.078
1275  15265.613
1274  15046.448
1273  14861.555
1272  14768
1271  15180.229
1270  15044.599
1269  14536.951
1268  14686.575
1267  14809.023
1266  14929.17
1265  15017.258
1264  15186.859
1263  14969.306
1262  15202.067
1261  15361.042
1260  14928.547
1259  15379.022
1258  14984.458
1257  14982.514
1256  14683.655
1255  14814.748
1254  14734.435
1253  14828.21
1252  15068.801
1251  15253.982
1250  15795.678
1249  15397.982
1248  15463.283
1247  15447.313
1246  14887.043
1245  15345.264
1244  15048.633
1243  15081.361
1242  15159.39
1241  14931.698
1240  14780.835
1239  14943.239
1238  14762.532
1237  15018.136
1236  15088.699
1235  15145.549
1234  15256.242
1233  15075.007
1232  15234.665
1231  15128.741
1230  15288.996
1229  15228.83
1228  14963.566
1227  15261.809
1226  15594.633
1225  14513.795
1224  15033.573
1223  14673.202
1222  14812.368
1221  14730.413
1220  15208.338
1219  15275.285
1218  15201.552
1217  15218.033
1216  15111.084
1215  14740.111
1214  15036.692
1213  14897.001
1212  15228.579
1211  15000.735
1210  15103.123
1209  15514.82
1208  14973.497
1207  14971.459
1206  15007.054
1205  14918.814
1204  14471.221
1203  14726.258
1202  14784.057
1201  14946.139
1200  15176.965
1199  14872.81
1198  14709.692
1197  14841.859
1196  14873.941
1195  15075.014
1194  15072.344
1193  15024.146
1192  14859.001
1191  14939.765
1190  15040.932
1189  14830.218
1188  14888.5
1187  14746.967
1186  14966.45
1185  15341.235
1184  15041.519
1183  14760.537
1182  15180.775
1181  15151.631
1180  15186.832
1179  14893.138
1178  14945.529
1177  14950.243
1176  15649.183
1175  15510.391
1174  15229.713
1173  14682.844
1172  15040.045
1171  15291.663
1170  15646.655
1169  15398.34
1168  15207.294
1167  15139.657
1166  15361.474
1165  15179.054
1164  14626.473
1163  14725.949
1162  14479.071
1161  15139.419
1160  14764.003
1159  15002.368
1158  15204.885
1157  15157.722
1156  15308.293
1155  15309.856
1154  14746.134
1153  14975.197
1152  15307.057
1151  15416.73
1150  15204.101
1149  15647.174
1148  15439.478
1147  14822.428
1146  15098.691
1145  14980.106
1144  15099.746
1143  15308.826
1142  14966.763
1141  15207.033
1140  15535.962
1139  15637.961
1138  15328.524
1137  15328.422
1136  15136.659
1135  15165.859
1134  15245.687
1133  15884.348
1132  15920.909
1131  15726.588
1130  15290.65
1129  15154.553
1128  15895.244
1127  15280.747
1126  15161.895
1125  15231.741
1124  15226.352
1123  15574.909
1122  15330.145
1121  15429.436
1120  15367.584
1119  15562.264
1118  15591.628
1117  15900.175
1116  15403.623
1115  15103.288
1114  15648.452
1113  15316.674
1112  15541.997
1111  15608.81
1110  15345.227
1109  15668.797
1108  15187.636
1107  15386.791
1106  15534.035
1105  15902.775
1104  15763.583
1103  15288.25
1102  15750.904
1101  15524.501
1100  15467.398
1099  15311.891
1098  15649.978
1097  15719.866
1096  15656.826
1095  15735.791
1094  15532.887
1093  15402.544
1092  15533.244
1091  15568.572
1090  15628.662
1089  15575.777
1088  15919.009
1087  15594.437
1086  15375.925
1085  15411.303
1084  15464.986
1083  15570.395
1082  15676.757
1081  15652.203
1080  16055.442
1079  15500.731
1078  15764.324
1077  16023.029
1076  16363.163
1075  16005.308
1074  15950.371
1073  16086.937
1072  16247.466
1071  16755.682
1070  16472.49
1069  16563.984
1068  16218.517
1067  16261.059
1066  16119.613
1065  16540.444
1064  16840.69
1063  16702.281
1062  17013.872
1061  16417.044
1060  16536.789
1059  16405.26
1058  17026.26
1057  16740.186
1056  16267.492
1055  16228.004
1054  16845.764
1053  17014.466
1052  17280.636
1051  16980.586
1050  17142.915
1049  16654.291
1048  16763.41
1047  17363.185
1046  17143.804
1045  16608.469
1044  16887.651
1043  17067.471
1042  17127.529
1041  16911.447
1040  16936.419
1039  17237.351
1038  17551.206
1037  17582.206
1036  17252.631
1035  17205.175
1034  17574.14
1033  17551.131
1032  17721.559
1031  17643.421
1030  17982.519
1029  17634.178
1028  17906.73
1027  18394.666
1026  18155.019
1025  18387.257
1024  18277.484
1023  18566.876
1022  18440.684
1021  18599.866
1020  18976.035
1019  19355.607
1018  18975.677
1017  19009.951
1016  18271.006
1015  18492.573
1014  17808.811
1013  18148.415
1012  18254.211
1011  18126.096
1010  18545.361
1009  19314.563
1008  19997.84
1007  20975.073
1006  21260.11
1005  21292.956
1004  22119.155
1003  22722.904
1002  21976.264
1001  21013.558
1000  20069.957
999  19374.024
998  19110.783
997  19320.282
996  18356.585
995  17571.52
994  17217.324
993  16794.876
992  17107.489
991  17813.202
990  18134.205
989  18378.502
988  18761.93
987  19709.259
986  21573.739
985  23715.267
984  26282.773
983  28557.322
982  30191.249
981  29528.648
980  26641.048
979  22889.346
978  19865.956
977  18085.434
976  16231.15
975  15174.165
974  14341.49
973  13415.563
972  11998.17
971  11185.679
970  10140.682
969  9708.289
968  9290.4062
967  8763.076
966  8717.6023
965  8505.9073
964  8664.2676
963  8969.9956
962  8960.6904
961  8996.5304
960  8996.203
959  8765.9081
958  8470.3264
957  9133.3591
956  8943.3227
955  8866.807
954  8607.799
953  8733.7978
952  8730.6366
951  8724.1054
950  8849.0761
949  8746.6653
948  8772.9941
947  9094.7516
946  8800.7733
945  8906.1172
944  8643.9192
943  9346.7198
942  9109.5488
941  8998.4016
940  9073.7323
939  9092.5795
938  8802.5236
937  8666.2058
936  8715.3797
935  9119.1955
934  9103.0995
933  9155.0982
932  9209.8302
931  9090.5268
930  9220.8215
929  9146.9043
928  9280.5093
927  9535.8608
926  9548.7974
925  9272.9257
924  9260.6044
923  9023.7874
922  9346.7153
921  9353.7174
920  9068.2713
919  9492.1112
918  9043.6535
917  9366.9452
916  9742.4398
915  9440.0029
914  9436.3525
913  9513.5914
912  9436.057
911  9441.448
910  9906.1178
909  9759.5506
908  9405.2526
907  9556.5281
906  9703.5271
905  9615.5786
904  9359.7498
903  9295.0457
902  9817.1206
901  9521.6352
900  9315.2851
899  9650.3707
898  9677.455
897  9759.0404
896  9751.3115
895  9747.3676
894  9928.6175
893  10037.223
892  10097.527
891  9694.0758
890  9898.6609
889  10100.381
888  10336.338
887  9923.7136
886  9817.7802
885  10436.298
884  9942.9387
883  10030.287
882  10310.618
881  10218.003
880  10068.908
879  10348.059
878  10433.725
877  10272.67
876  10516.498
875  10185.722
874  9959.7677
873  10151.027
872  10324.165
871  10187.106
870  10454.877
869  10319.697
868  10581.942
867  10412.199
866  10461.723
865  10657.179
864  9980.8059
863  10368.346
862  10415.547
861  10510.698
860  10518.117
859  10703.879
858  10286.093
857  10216.706
856  10441.794
855  10772.018
854  10934.167
853  11114.205
852  11018.49
851  11094.193
850  11089.693
849  10806.682
848  10568.411
847  10741.055
846  10925.67
845  10994.6
844  11388.558
843  10986.152
842  11281.795
841  11274.893
840  11111.6
839  11168.341
838  11327.273
837  11241.724
836  11389.981
835  11001.595
834  11351.241
833  11316.204
832  11216.665
831  11210.81
830  11559.135
829  11236.236
828  11234.133
827  11472.352
826  11414.821
825  11543.947
824  11396.426
823  11538.247
822  11579.216
821  11582.516
820  11371.166
819  11644.095
818  11881.545
817  11775.754
816  11283.169
815  11751.266
814  11804.019
813  11898.005
812  12087.684
811  12297.46
810  12088.296
809  12129.343
808  12068.614
807  11895.769
806  11953.816
805  12170.134
804  12038.665
803  11977.516
802  11903.867
801  11760.441
800  11969.32
799  12000.19
798  11884.578
797  11907.712
796  12290.043
795  12151.801
794  12355.236
793  12212.215
792  12021.573
791  12046.601
790  12133.319
789  12522.438
788  12566.19
787  12761.038
786  12874.653
785  12527.635
784  12362.465
783  12565.566
782  12749.628
781  12563.027
780  12770.806
779  12760.08
778  12500.073
777  12649.797
776  12789.546
775  12462.431
774  12685.745
773  12789.638
772  12308.572
771  12515.432
770  12583.924
769  12944.537
768  12925.104
767  12982.329
766  13318.508
765  13020.959
764  13037.409
763  12691.404
762  12665.579
761  12931.172
760  13308.15
759  13316.422
758  13024.541
757  13381.743
756  12965.905
755  12866.582
754  13139.439
753  13246.875
752  13351.616
751  13131.321
750  13131.697
749  13224.597
748  13373.197
747  13652.746
746  13624.903
745  13539.984
744  13274.327
743  13412.285
742  13876.023
741  13813.762
740  13605.76
739  13515.749
738  13824.714
737  13207.721
736  13392.464
735  13750.25
734  13578.443
733  13807.621
732  13757.628
731  13124.997
730  13752.425
729  14292.396
728  13692.671
727  13510.06
726  14206.973
725  14072.874
724  14258.745
723  14369.898
722  14020.488
721  14028.384
720  14253.865
719  14186.846
718  14516.659
717  14225.112
716  14612.892
715  14683.394
714  14658.54
713  14164.596
712  14261.924
711  14603.935
710  14293.888
709  14205.411
708  14517.704
707  14614.228
706  14286.294
705  14728.852
704  14613.399
703  14733.159
702  14497.347
701  14892.107
700  14637.493
699  14855.444
698  14581.439
697  14485.286
696  14804.639
695  14321.446
694  14929.635
693  15157.034
692  15192.596
691  14953.46
690  15263.62
689  15398.166
688  15232.022
687  15187.189
686  15106.351
685  15296.846
684  14798.23
683  15181.831
682  15676.514
681  15665.565
680  15237.547
679  14780.282
678  14755.838
677  15707.475
676  16280.524
675  15782.68
674  15739.487
673  15646.038
672  15592.385
671  15740.404
670  15840.855
669  15533.632
668  15592.862
667  15905.51
666  16152.311
665  16187.976
664  16162.362
663  16017.515
662  15691.719
661  15343.567
660  16304.232
659  16024.47
658  15966.637
657  16373.089
656  16575.913
655  15950.448
654  16578.427
653  16055.108
652  16358.89
651  16495.192
650  16675.063
649  16479.744
648  16244.641
647  16379.171
646  16103.612
645  16448.798
644  16332.636
643  16689.425
642  16981.998
641  16770.336
640  16859.608
639  16680.562
638  16627.18
637  16498.399
636  16825.024
635  17078.645
634  16901.492
633  17068.61
632  16909.305
631  17246.526
630  17104.203
629  17263.933
628  17884.372
627  17846.177
626  17263.77
625  17278.385
624  17556.328
623  17666.953
622  17686.108
621  17769.101
620  16886.852
619  17419.955
618  17822.479
617  17968.962
616  17707.424
615  17806.114
614  17717.63
613  17400.252
612  17839.835
611  17972.43
610  18216.653
609  17951.833
608  17938.939
607  17824.698
606  17727.25
605  17870.373
604  17903.456
603  18252.911
602  18175.336
601  18335.144
600  18025.488
599  17907.679
598  18303.853
597  18434.584
596  19078.348
595  18505.424
594  18209.001
593  18139.178
592  19007.234
591  18583.997
590  18498.154
589  18839.728
588  18906.702
587  19124.787
586  19028.51
585  18908.937
584  18776.989
583  19454.614
582  19009.377
581  19030.996
580  19335.169
579  19614.933
578  19223.487
577  19527.486
576  18945.738
575  19160.778
574  19780.222
573  18952.713
572  18402.822
571  18949.421
570  18417.585
569  17940.634
568  18151.95
567  17686.507
566  18024.518
565  18927.143
564  19342.703
563  19980.163
562  21693.121
561  22264.571
560  22999.15
559  22969.981
558  23559.992
557  23611.313
556  23373.477
555  22010.173
554  20795.649
553  18845.872
552  18264.659
551  17183.149
550  16160.782
549  15249.815
548  14495.792
547  13656.86
546  12908.202
545  11405.388
544  10169.959
543  9404.8346
542  8871.6758
541  8707.8505
540  8570.7883
539  8530.6773
538  10309.888
537  17578.596
536  45760.251
535  111912.97
534  126670.64
533  52913.381
532  14342.046
531  8331.3077
530  7086.627
529  6816.1966
528  6534.2896
527  6373.944
526  6574.8247
525  6648.6043
524  6428.2057
523  6201.2778
522  6197.2309
521  6457.7513
520  6264.5986
519  6134.7042
518  6401.3535
517  6407.7688
516  6755.0219
515  6424.486
514  6437.0901
513  6489.4557
512  6669.2694
511  6309.0527
510  6065.9191
509  6390.6441
508  6826.5463
507  6624.5855
506  6435.4141
505  6404.6093
504  6400.5767
503  6321.4693
502  6393.4382
501  6505.861
500  6317.8401
499  6468.5935
498  6452.2763
497  6278.6218
496  6370.4317
495  6383.6981
494  6906.1043
493  6436.8624
492  6485.3537
491  6294.5671
490  6728.9588
489  6496.1258
488  6238.3324
487  6226.6726
486  6402.3091
485  6567.358
484  6445.7999
483  6629.6788
482  6724.0479
481  6669.0044
480  6495.5937
479  6480.2324
478  6596.053
477  6514.6008
476  6668.2118
475  6692.9696
474  6813.5842
473  6654.1579
472  6430.9603
471  6562.9511
470  6443.765
469  6537.0052
468  6770.9037
467  6776.4835
466  6417.1127
465  6438.7824
464  6373.2944
463  6475.7893
462  6799.2193
461  6682.3106
460  6773.6342
459  6326.9724
458  6540.5846
457  6548.5062
456  6593.6583
455  6775.0101
454  6804.0081
453  6770.0283
452  6741.1283
451  6777.2122
450  6826.7318
449  6779.8807
448  6552.6862
447  6841.7109
446  6719.2921
445  6388.3761
444  6704.0183
443  6802.6157
442  6781.9662
441  6792.8022
440  6736.6254
439  6809.3662
438  6663.7419
437  6833.8285
436  6856.5418
435  6658.2911
434  6772.226
433  6832.3546
432  6856.4158
431  7186.6423
430  6824.2705
429  6360.9696
428  7050.0034
427  6832.0273
426  6986.0281
425  6729.7195
424  6795.0886
423  6738.8995
422  6867.1807
421  6969.8346
420  6928.8054
419  6748.4748
418  7020.9586
417  6957.2874
416  6867.453
415  6748.4779
414  6574.793
413  6604.7078
412  6945.184
411  7159.0121
410  7010.6163
409  7095.499
408  7350.8081
407  6687.5117
406  6950.6848
405  6922.9957
404  6811.5205
403  6957.6274
402  7079.3573
401  7538.2147
400  7836.316
399  7289.3439
398  7132.6226
397  7160.0695
396  6942.5555
395  6868.0891
394  7097.5516
393  7204.2621
392  7181.6506
391  6792.3459
390  6805.3944
389  6702.2828
388  6737.1747
387  6952.5209
386  6937.345
385  6923.3231
384  7147.8152
383  6757.4941
382  7034.0951
381  7020.5548
380  7174.8826
379  6866.0845
378  6953.0928
377  7252.0334
376  7138.8641
375  6996.1757
374  6959.7649
373  6810.8728
372  7027.8809
371  7103.3335
370  6967.3332
369  6698.2627
368  6761.055
367  6909.2525
366  6792.2107
365  6788.2563
364  6681.0268
363  7014.6364
362  7035.9754
361  6885.3598
360  7112.7088
359  7072.2649
358  7108.4737
357  7208.0064
356  6801.3392
355  7244.682
354  6982.6866
353  6930.395
352  7334.3371
351  6926.2034
350  7292.7177
349  7285.6564
348  6938.7923
347  7031.1453
346  7047.1402
345  6861.6786
344  7293.4434
343  7034.062
342  6995.9585
341  6925.2717
340  6897.154
339  7128.0128
338  7165.5646
337  7179.8375
336  6949.8739
335  7041.8896
334  6690.043
333  6633.6619
332  6645.7457
331  6917.4842
330  7027.3883
329  6958.7813
328  6694.2765
327  7011.6652
326  6995.5756
325  6749.3772
324  7052.3133
323  6914.8176
322  7641.346
321  7623.824
320  7401.5095
319  7262.4236
318  6799.0483
317  6963.9527
316  6796.1636
315  6701.4242
314  6978.6848
313  7062.836
312  6979.3514
311  7096.3308
310  6941.6532
309  6963.6703
308  7072.2853
307  6702.639
306  6858.6294
305  6977.8289
304  6719.0618
303  6744.1917
302  7025.8229
301  7053.2853
300  6895.7825
299  6788.4967
298  6602.4524
297  6660.3616
296  6782.8607
295  6800.3941
294  6999.8678
293  6871.8955
292  6883.9768
291  6855.4264
290  6969.445
289  6904.3108
288  6750.8903
287  7160.3692
286  7253.6795
285  7186.3602
284  7087.7135
283  6904.543
282  6878.9348
281  6681.6725
280  6826.7071
279  6953.8213
278  6706.5275
277  6845.7478
276  6807.2609
275  6980.025
274  6686.0318
273  6804.9002
272  6828.1174
271  6775.2471
270  6713.2585
269  6765.0784
268  6859.8924
267  6894.3843
266  6674.931
265  6691.7869
264  6639.1395
263  7026.3965
262  6715.9174
261  6625.7236
260  6744.6025
259  6812.3311
258  6776.7215
257  6822.8936
256  6443.177
255  6587.8167
254  6409.3763
253  6261.9254
252  6185.7011
251  6258.8203
250  6515.0772
249  6560.1694
248  6539.0234
247  6637.8246
246  7165.8698
245  7644.6275
244  7780.2294
243  7837.821
242  6884.2044
241  6186.9329
240  6606.6478
239  6729.6754
238  6436.9679
237  6512.3396
236  6491.1842
235  6183.2214
234  6495.818
233  6576.73
232  6571.2938
231  6583.0619
230  6445.388
229  6500.3381
228  6557.8656
227  6286.3978
226  6579.7874
225  6579.8655
224  6245.402
223  6435.2539
222  6460.4632
221  6455.9673
220  6365.1042
219  6070.6741
218  6450.5889
217  6353.4365
216  6487.3656
215  6437.0708
214  6243.7634
213  6297.7533
212  6443.2788
211  6643.8506
210  6617.0858
209  6609.5737
208  6511.2032
207  6614.694
206  6707.5434
205  6580.5663
204  6582.5395
203  6547.8041
202  6779.1654
201  6471.989
200  6633.3518
199  6955.2691
198  6828.9858
197  6760.3115
196  6802.1648
195  6583.9781
194  6539.8903
193  6355.5051
192  6608.1912
191  6470.8042
190  6460.9041
189  6631.0889
188  6551.8757
187  6477.334
186  6662.9871
185  6594.4797
184  6599.1238
183  6891.7274
182  7143.9764
181  7366.8996
180  7179.1561
179  7387.0187
178  7407.1883
177  7535.0017
176  7349.1785
175  7240.3349
174  7188.004
173  6619.7876
172  6624.8663
171  6569.3551
170  5897.2811
169  5767.4902
168  5548.1096
167  5353.7326
166  4907.4418
165  5010.8699
164  4935.8936
163  4831.518
162  4914.4736
161  4823.1669
160  6017.9314
159  7937.7553
158  12383.567
157  21588.959
156  27995.854
155  21299.452
154  12570.565
153  7610.1983
152  5684.5905
151  4906.8688
150  4575.2938
149  4185.0223
148  3967.6801
147  4293.9993
146  4126.1942
145  3903.6503
144  3911.709
143  3816.8448
142  3691.4533
141  3719.5603
140  3867.9273
139  3514.2133
138  3778.0402
137  3577.6508
136  3721.4619
135  3615.4683
134  3810.4988
133  4150.6531
132  4085.4034
131  4342.6211
130  4782.8365
129  4513.5243
128  4697.2352
127  4859.1189
126  4414.1084
125  4270.2115
124  4199.2696
123  4065.4886
122  3854.3307
121  3648.2578
120  3295.7374
119  3142.233
118  2872.5468
117  2534.4883
116  2136.4041
115  1977.1623
114  1703.8499
113  1608.5423
112  1681.7897
111  1590.9373
110  1539.0127
109  1719.8775
108  2809.6425
107  7121.0318
106  19552.67
105  30465.225
104  20023.829
103  6439.6581
102  2069.2761
101  1347.9935
100  1488.5413
99  1278.744
98  980.06213
97  978.5124
96  1084.9032
95  1027.6038
94  951.4183
93  956.81781
92  1042.3667
91  1052.6015
90  1037.5843
89  1043.8394
88  1071.5521
87  1092.4222
86  1073.1915
85  1011.1392
84  1046.5378
83  1040.2279
82  1040.1002
81  1111.6292
80  1183.7803
79  1078.5452
78  948.53835
77  881.56583
76  1061.3231
75  1332.9257
74  1089.2961
73  1006.1922
72  1009.7903
71  1249.9456
70  1219.3863
69  1142.633
68  1150.7266
67  1131.0504
66  1100.3949
65  1146.5052
64  1110.3535
63  1189.3003
62  1120.7607
61  996.90001
60  1029.6722
59  1149.0596
58  1246.0261
57  1250.8397
56  1239.2426
55  1279.4752
54  1381.0046
53  1351.9826
52  1380.7831
51  1248.4896
50  1242.4511
49  1366.9754
48  1298.0293
47  1091.5015
46  1089.2554
45  1044.757
44  1056.262
43  1007.2072
42  1079.3744
41  1002.9535
40  1000.6951
39  987.75487
38  894.15028
37  890.36612
36  987.83377
35  960.01764
34  1055.5577
33  1204.2853
32  1098.0239
31  1455.8031
30  1953.7386
29  2807.1449
28  4074.272
27  4756.0897
26  3922.1834
25  2218.1841
24  1019.081
23  571.61577
22  372.43029
21  243.25206
20  228.52916
19  216.97472
18  362.26797
17  965.29333
16  1263.9198
15  1268.4258
14  1156.0581
13  1062.3745
12  1066.4421
11  1150.3022
10  1235.6753
9  1073.7471
8  961.83242
7  584.22468
6  273.78319
5  171.82151
4  86.185218
3  42.697002
2  35.809465
1  8.994015
0  2.9658