# Region:            O1s (67)
# Acquisition Date:  11/11/19 21:08:57 UTC
# Analysis Method:   XPS
# Analyzer:          Phoibos
# Analyzer Lens:     MediumArea:1.5kV
# Analyzer Slit:     4:3x20\B:open
# Scan Mode:         FixedAnalyzerTransmission
# Curves/Scan:       1
# Values/Curve:      211
# Dwell Time:        0.1
# Excitation Energy: 1486.71
# Binding Energy:    541
# Pass Energy:       10
# Bias Voltage:      90
# Detector Voltage:  1900
# Eff. Workfunction: 4.395
# Source:            Focus
# Comment:           35 grados
#
# Cycle: 0
# Number of Scans: 8
#
# Cycle: 0, Curve: 0
# Acquisition Date: 11/11/19 21:08:57 UTC
#
# ColumnLabels: energy counts/s
#
541  389.51623
540.9  396.03844
540.8  410.42754
540.7  367.26776
540.6  376.78031
540.5  351.42932
540.4  389.80715
540.3  395.54301
540.2  387.33789
540.1  373.48962
540  418.98435
539.9  407.08147
539.8  380.5737
539.7  362.12554
539.6  367.47548
539.5  372.34925
539.4  367.95504
539.3  354.96442
539.2  372.47509
539.1  390.44662
539  369.97958
538.9  373.38216
538.8  368.62902
538.7  357.83438
538.6  404.4445
538.5  376.1585
538.4  377.5931
538.3  396.94336
538.2  383.62206
538.1  400.35193
538  404.18006
537.9  384.04567
537.8  374.27391
537.7  385.43378
537.6  345.8137
537.5  377.25457
537.4  381.17664
537.3  337.43411
537.2  389.52084
537.1  387.56806
537  430.59353
536.9  374.10908
536.8  376.53394
536.7  377.92631
536.6  365.25749
536.5  352.73175
536.4  361.70822
536.3  357.73655
536.2  414.61697
536.1  370.92357
536  347.89113
535.9  362.39669
535.8  390.09801
535.7  397.20454
535.6  419.52242
535.5  386.06899
535.4  386.38637
535.3  406.62139
535.2  369.54854
535.1  382.19637
535  385.66275
534.9  358.75014
534.8  372.28469
534.7  424.31612
534.6  397.23152
534.5  409.94493
534.4  416.72966
534.3  403.26525
534.2  387.1866
534.1  400.24217
534  386.98368
533.9  454.34642
533.8  407.00613
533.7  426.08932
533.6  449.66257
533.5  420.93605
533.4  456.81787
533.3  462.68943
533.2  433.72883
533.1  452.10852
533  474.47996
532.9  478.79522
532.8  489.49035
532.7  532.75973
532.6  537.79606
532.5  570.80174
532.4  609.4674
532.3  635.00135
532.2  664.59208
532.1  636.64322
532  776.46387
531.9  791.76729
531.8  829.16015
531.7  824.53095
531.6  929.58623
531.5  959.34734
531.4  972.7376
531.3  947.71373
531.2  918.97787
531.1  864.21929
531  755.86925
530.9  724.89572
530.8  656.19332
530.7  576.17615
530.6  459.94081
530.5  408.42523
530.4  420.47308
530.3  396.37933
530.2  396.6752
530.1  360.99835
530  339.88942
529.9  368.95001
529.8  378.22616
529.7  381.09747
529.6  375.89991
529.5  359.91817
529.4  363.03413
529.3  389.53879
529.2  342.88655
529.1  348.12103
529  361.30378
528.9  377.5181
528.8  409.9374
528.7  352.6844
528.6  358.80902
528.5  374.17938
528.4  371.50552
528.3  338.28065
528.2  347.38459
528.1  376.45159
528  363.04808
527.9  384.11652
527.8  398.06534
527.7  348.60403
527.6  369.49515
527.5  366.2527
527.4  330.6962
527.3  378.49745
527.2  375.13489
527.1  370.68892
527  367.0975
526.9  382.7741
526.8  352.03579
526.7  352.98375
526.6  375.57023
526.5  377.75585
526.4  354.04777
526.3  383.51893
526.2  358.2004
526.1  372.15227
526  379.17882
525.9  349.33601
525.8  380.20962
525.7  356.41784
525.6  368.43631
525.5  357.98712
525.4  380.31418
525.3  340.09427
525.2  358.635
525.1  344.84674
525  339.83211
524.9  375.8055
524.8  353.80619
524.7  372.57309
524.6  344.87419
524.5  356.06272
524.4  329.49807
524.3  345.69402
524.2  369.56833
524.1  346.14459
524  350.16284
523.9  369.04575
523.8  367.03106
523.7  356.63241
523.6  341.79601
523.5  308.05829
523.4  383.67277
523.3  385.11567
523.2  348.33439
523.1  377.64813
523  377.13931
522.9  337.195
522.8  359.15448
522.7  372.15528
522.6  367.37364
522.5  357.3962
522.4  347.82979
522.3  365.28973
522.2  375.37557
522.1  366.79546
522  365.58562
521.9  366.16912
521.8  368.37511
521.7  338.06479
521.6  342.01131
521.5  367.21969
521.4  377.37325
521.3  371.78185
521.2  392.58628
521.1  371.03549
521  364.85551
520.9  337.17514
520.8  328.00619
520.7  374.43747
520.6  348.01256
520.5  358.36799
520.4  352.08957
520.3  358.41545
520.2  346.7415
520.1  369.88987
520  369.30557