# Region:            Survey
# Acquisition Date:  11/08/19 17:38:51 UTC
# Analysis Method:   XPS
# Analyzer:          Phoibos
# Analyzer Lens:     MediumArea:1.5kV
# Analyzer Slit:     4:3x20\B:open
# Scan Mode:         FixedAnalyzerTransmission
# Curves/Scan:       1
# Values/Curve:      1301
# Dwell Time:        0.1
# Excitation Energy: 1486.71
# Binding Energy:    1300
# Pass Energy:       50
# Bias Voltage:      90
# Detector Voltage:  1900
# Eff. Workfunction: 4.395
# Source:            Focus
# Comment:           Despues de decapado 5 min
#
# Cycle: 0
# Number of Scans: 2
#
# Cycle: 0, Curve: 0
# Acquisition Date: 11/08/19 17:38:51 UTC
#
# ColumnLabels: energy counts/s
#
1300  13960.888
1299  14162.75
1298  13490.383
1297  13550.997
1296  13860.105
1295  13836.744
1294  13838.49
1293  13794.85
1292  13765.47
1291  13498.458
1290  13512.491
1289  13368.81
1288  13781.203
1287  13978.359
1286  13306.467
1285  13794.017
1284  13788.319
1283  13336.581
1282  13732.223
1281  13386.564
1280  13520.369
1279  13860.126
1278  13464.355
1277  13672.424
1276  13662.218
1275  13302.899
1274  13235.015
1273  13570.919
1272  13683.631
1271  13739.05
1270  13299.942
1269  13242.165
1268  13931.89
1267  13871.604
1266  12907.335
1265  13198.958
1264  13222.999
1263  13336.911
1262  13576.508
1261  14082.192
1260  13361.009
1259  13315.446
1258  13304.915
1257  13415.745
1256  13216.904
1255  13408.931
1254  13655.464
1253  13422.006
1252  13755.065
1251  13664.938
1250  13348.546
1249  13264.604
1248  13634.684
1247  13416.682
1246  13322.148
1245  13457.496
1244  13159.922
1243  12988.759
1242  13275.172
1241  13520.486
1240  13462.993
1239  13159.177
1238  13574.821
1237  13348.726
1236  13310.219
1235  13441.147
1234  13188.898
1233  13624.581
1232  13642.113
1231  13443.585
1230  13364.992
1229  13313.174
1228  13105.816
1227  13744.473
1226  13175.728
1225  13377.144
1224  13311.939
1223  13362.39
1222  13418.536
1221  13202.71
1220  13457.05
1219  13366.735
1218  13547.128
1217  13301.283
1216  13400.054
1215  13514.435
1214  13131.676
1213  12781.798
1212  13318.856
1211  13342.6
1210  13210.913
1209  13273.187
1208  13456.38
1207  13730.109
1206  13352.471
1205  13180.692
1204  13255.446
1203  13510.658
1202  13370.676
1201  13279.342
1200  13498.008
1199  13728.158
1198  13291.116
1197  13331.577
1196  13126.917
1195  12887.902
1194  12924.199
1193  13461.102
1192  13169.814
1191  13617.729
1190  13438.489
1189  13402.794
1188  13617.848
1187  13315.077
1186  13845.061
1185  13588.332
1184  13321.266
1183  13204.026
1182  13319.153
1181  13316.961
1180  13104.347
1179  13319.332
1178  13271.283
1177  13779.286
1176  13654.399
1175  13567.766
1174  13425.867
1173  13785.673
1172  13907.666
1171  13517.863
1170  13387.994
1169  13376.148
1168  13765.378
1167  13509.516
1166  13313.301
1165  13584.204
1164  13151.48
1163  14010.011
1162  13979.263
1161  14026.305
1160  14100.051
1159  13486.341
1158  13685.457
1157  14056.184
1156  13679.675
1155  13795.839
1154  13337.224
1153  13736.226
1152  13633.571
1151  13561.337
1150  13618.429
1149  13731.015
1148  13704.57
1147  13606.259
1146  13390.424
1145  13450.604
1144  13713.025
1143  14012.454
1142  13996.197
1141  13727.767
1140  13834.742
1139  13899.574
1138  14231.141
1137  13964.943
1136  13879.699
1135  13389.871
1134  14136.1
1133  14101.895
1132  13855.664
1131  13720.705
1130  13610.616
1129  14160.499
1128  13993.032
1127  13618.247
1126  13833.782
1125  13857.901
1124  13889.672
1123  14056.314
1122  13867.516
1121  14523.411
1120  14325.338
1119  13713.375
1118  13387.54
1117  14147.09
1116  13658.986
1115  13634.999
1114  14387.534
1113  14102.096
1112  14321.523
1111  14162.049
1110  14268.722
1109  14134.498
1108  14110.583
1107  14119.018
1106  13969.397
1105  14184.799
1104  14263.818
1103  13899.052
1102  13697.44
1101  13911.296
1100  13874.921
1099  14147.381
1098  14230.153
1097  14166.346
1096  14138.06
1095  14248.853
1094  14274.906
1093  14105.529
1092  14216.82
1091  14460.557
1090  14277.06
1089  14030.856
1088  14493.206
1087  14303.714
1086  14271.236
1085  14075.131
1084  14600.286
1083  14647.481
1082  14256.809
1081  14465.942
1080  14565.412
1079  14674.104
1078  14281.541
1077  14406.695
1076  14699.181
1075  14735.505
1074  14316.101
1073  14672.795
1072  15040.267
1071  14939.346
1070  15008.979
1069  15092.335
1068  14740.49
1067  15272.304
1066  14979.837
1065  14693.463
1064  15289.038
1063  15403.161
1062  14916.341
1061  14722.683
1060  14934.27
1059  15223.244
1058  14989.858
1057  15174.803
1056  15125.075
1055  15266.918
1054  15252.922
1053  15619.189
1052  15159.345
1051  15352.153
1050  15050.425
1049  15094.02
1048  15122.625
1047  15377.19
1046  15694.272
1045  15424.704
1044  15507.19
1043  15284.179
1042  15734.808
1041  15990.134
1040  15564.973
1039  15690.961
1038  15823.126
1037  16237.254
1036  16193.162
1035  15802.912
1034  16093.569
1033  16517.059
1032  16338.539
1031  16547.278
1030  16533.661
1029  16330.494
1028  16504.119
1027  16871.71
1026  16606.96
1025  16820.337
1024  16912.25
1023  17051.779
1022  16882.54
1021  17403.69
1020  17551.959
1019  17899.277
1018  17955.923
1017  17923.685
1016  17474.324
1015  16887.561
1014  16911.85
1013  17355.383
1012  16975.368
1011  17073.984
1010  16880.656
1009  17983.643
1008  18188.603
1007  18971.127
1006  19185.748
1005  20206.641
1004  20013.969
1003  20575.314
1002  20716.075
1001  20077.242
1000  19511.6
999  18418.439
998  17725.886
997  17982.705
996  17353.192
995  16792.449
994  16396.178
993  15625.974
992  15577.821
991  15966.12
990  16408.076
989  16536.297
988  16779.578
987  17469.8
986  19734.367
985  22083.318
984  24051.868
983  25854.59
982  28387.192
981  29088.524
980  26039.961
979  22782.612
978  20122.507
977  17446.018
976  16157.933
975  14302.248
974  13086.364
973  12110.391
972  11668.882
971  10271.401
970  9760.6012
969  8889.5579
968  8317.199
967  7821.7044
966  7946.3094
965  7960.1226
964  7879.4152
963  7730.5318
962  7528.8423
961  7782.6107
960  7621.9153
959  7648.1081
958  7827.9688
957  7619.4166
956  7795.2966
955  7968.6949
954  7721.0218
953  7780.0608
952  7400.9028
951  7603.3539
950  7683.9788
949  7593.4806
948  7742.3712
947  7615.9971
946  7913.3922
945  7719.6905
944  7583.2565
943  7959.5596
942  7871.8839
941  7840.9998
940  7812.7195
939  7676.0619
938  7654.385
937  7723.5716
936  7932.302
935  7708.9831
934  7674.1089
933  8025.8437
932  8023.1017
931  7752.8299
930  7885.5454
929  7745.0075
928  7747.5628
927  8044.9243
926  7832.5002
925  8170.6231
924  7951.7019
923  8219.8235
922  8131.3378
921  7906.3137
920  8343.7599
919  8297.4425
918  8381.7668
917  7891.8894
916  7906.0013
915  8106.1638
914  8200.9518
913  8135.8964
912  8399.0642
911  8362.9499
910  8293.5207
909  8112.9242
908  8558.0547
907  8561.5974
906  8546.2652
905  8096.2088
904  8400.8972
903  8525.3663
902  8808.5981
901  9055.5232
900  8461.9445
899  8045.0094
898  8521.9263
897  8442.4623
896  8397.8928
895  8646.3392
894  8617.8439
893  8350.1544
892  8591.5839
891  8378.3295
890  8840.5303
889  8825.2687
888  8647.3784
887  8464.3486
886  8604.9676
885  8542.6964
884  8683.9753
883  8558.8447
882  8451.9078
881  8542.114
880  8824.9591
879  8633.5519
878  8514.6984
877  8684.4491
876  8515.4982
875  8877.1515
874  8670.8848
873  8714.7739
872  8930.7349
871  8709.3035
870  8885.3849
869  9077.3342
868  8968.7949
867  9055.3016
866  9085.2855
865  8924.8607
864  8771.8184
863  9118.4002
862  8991.0201
861  9336.6842
860  9088.6385
859  9190.6468
858  9395.5346
857  9163.936
856  9288.2042
855  9383.0161
854  9221.5329
853  9159.1675
852  9449.6245
851  9415.6164
850  9495.93
849  9170.93
848  9061.6016
847  9410.3787
846  9894.1797
845  9675.3928
844  9160.7759
843  9671.3816
842  9271.7458
841  9490.1353
840  9409.3965
839  9467.5234
838  9534.2541
837  9589.4352
836  9505.2214
835  9823.0679
834  9898.3908
833  9875.7075
832  9657.0557
831  9702.7715
830  9618.599
829  9657.1924
828  10007.203
827  9805.7794
826  9356.5782
825  9885.5119
824  9775.3548
823  9571.0833
822  9527.2578
821  9903.8488
820  9678.7072
819  9727.2735
818  9885.6994
817  9828.2971
816  10140.962
815  9990.1062
814  9913.9116
813  10007.185
812  10083.453
811  10174.168
810  9969.4773
809  10064.465
808  10397.716
807  10599.444
806  10462.254
805  10261.268
804  10482.416
803  10747.128
802  10447.023
801  10187.907
800  10440.165
799  10085.776
798  10244.523
797  10430.588
796  10374.186
795  10389.469
794  10343.965
793  10607.185
792  10715.812
791  11072.857
790  10825.794
789  10538.903
788  10458.062
787  10455.181
786  10428.303
785  10835.209
784  10560.353
783  10887.52
782  10882.342
781  10547.642
780  10377.824
779  10557.914
778  10864.142
777  11092.86
776  10891.733
775  11121.682
774  10922.936
773  11396.345
772  11221.279
771  11192.542
770  11342.292
769  11283.165
768  11051.333
767  11010.606
766  11322.206
765  11335.09
764  11379.287
763  11571.637
762  11500.324
761  11352.195
760  11414.671
759  11312.141
758  11204.018
757  11057.88
756  11460.479
755  11202.104
754  11581.62
753  11161.955
752  11050.903
751  11624.763
750  11449.889
749  11329.902
748  11236.085
747  11544.092
746  11820.985
745  11905.055
744  11840.255
743  12115.589
742  11931.675
741  11923.572
740  11632.405
739  11816.158
738  12039.971
737  11930.469
736  11935.195
735  12141.191
734  12034.994
733  11926.022
732  11976.018
731  12061.234
730  11972.218
729  12086.803
728  11934.793
727  11643.4
726  12084.788
725  12485.439
724  12628.955
723  12335.366
722  12074.353
721  12091.555
720  12660.872
719  12953.243
718  12633.584
717  12556.886
716  12486.047
715  13025.871
714  12791.219
713  12843.333
712  13040.973
711  12945.14
710  12980.351
709  12737.375
708  12580.179
707  12785.823
706  12764.528
705  12858.749
704  12891.508
703  12989.563
702  12710.051
701  12820.941
700  12804.326
699  12875.173
698  13192.225
697  13360.726
696  13154.653
695  12831.62
694  13406.916
693  13075.357
692  13097.216
691  13236.987
690  13422.821
689  13263.649
688  13472.488
687  13325.251
686  13338.689
685  13431.596
684  13622.026
683  13564.774
682  13636.647
681  13725.285
680  13144.038
679  13655.617
678  14036.664
677  13879.312
676  13768.092
675  14045.315
674  14153.612
673  13879.644
672  14106.341
671  14534.646
670  14225.342
669  14359.712
668  14571.747
667  14250.106
666  14066.623
665  13944.9
664  14412.656
663  14423.734
662  14129.818
661  14461.94
660  14684.206
659  14538.843
658  14411.615
657  14511.022
656  15056.896
655  14892.043
654  14875.052
653  14524.48
652  14713.491
651  14740.629
650  14935.137
649  15082.467
648  14974.443
647  14715.157
646  14561.423
645  14855.477
644  15257.859
643  15449.845
642  15419.108
641  15440.147
640  15386.538
639  15500.309
638  15247.912
637  15904.229
636  15457.603
635  15141.918
634  15610.65
633  15614.017
632  15319.113
631  15916.057
630  15904.208
629  15593.406
628  16018.471
627  15566.663
626  15970.182
625  16440.782
624  16324.303
623  16090.424
622  16293.43
621  16178.508
620  16514.089
619  16728.627
618  16355.292
617  16367.774
616  16256.83
615  16013.313
614  16125.471
613  16748.331
612  16570.65
611  16675.913
610  16963.368
609  16801.213
608  16619.924
607  16909.114
606  16759.392
605  17168.625
604  17358.399
603  17057.858
602  17124.925
601  17319.277
600  17280.354
599  17342.129
598  17243.179
597  17091.631
596  17416.483
595  17610.594
594  17665.454
593  18006.703
592  17395.951
591  17460.646
590  17783.205
589  17991.064
588  17742.212
587  17958.324
586  17650.852
585  18095.249
584  18584.017
583  18556.001
582  18495.77
581  18588.365
580  18453.72
579  17992.15
578  18200.773
577  18269.228
576  18225.254
575  17866.534
574  17965.666
573  18174.766
572  17536.404
571  17415.228
570  17348.259
569  17191.336
568  17105.262
567  17138.928
566  17348.121
565  18309.627
564  19032.53
563  19565.196
562  19717.445
561  20511.342
560  21884.165
559  21961.847
558  22220.325
557  22976.745
556  22884.559
555  21844.11
554  20572.994
553  19403.717
552  17957.056
551  16298.61
550  15644.97
549  14998.397
548  14605.832
547  13665.973
546  12500.814
545  11587.07
544  10594.171
543  9615.2824
542  9479.8427
541  9148.6822
540  8504.2729
539  8416.7944
538  9295.4823
537  12408.177
536  29586.553
535  91328.945
534  134628.88
533  68268.457
532  18209.654
531  9015.8856
530  7191.2102
529  7079.1949
528  6671.9941
527  6536.7867
526  6551.1727
525  6505.3177
524  6666.4268
523  6663.1449
522  6332.6641
521  6433.3433
520  6521.5568
519  6503.8232
518  6354.1008
517  6521.7728
516  6490.2172
515  6701.5133
514  6461.8292
513  6224.3394
512  6305.9097
511  6532.0974
510  6464.0486
509  6645.9452
508  6725.1584
507  6728.0685
506  6621.7217
505  6474.5443
504  6565.0662
503  6557.0173
502  6394.5942
501  6520.9853
500  6720.8368
499  6418.4603
498  6549.4161
497  6871.8148
496  6690.2626
495  6342.7998
494  6663.3258
493  6682.7198
492  6641.3525
491  6698.2782
490  6782.879
489  6413.8538
488  6588.1713
487  6742.9
486  6397.4041
485  6594.1177
484  6739.4569
483  6437.0807
482  6671.8428
481  6774.3069
480  6661.6712
479  6414.3304
478  6580.6852
477  6679.7467
476  6814.4554
475  6653.5494
474  6598.0401
473  6903.6274
472  6548.908
471  6816.3873
470  6670.0684
469  6711.2151
468  6844.6318
467  7008.2252
466  6700.8396
465  6456.0272
464  6818.3979
463  7110.5569
462  6874.1505
461  6959.7685
460  6715.4002
459  6915.0156
458  6821.8563
457  7068.9779
456  7090.6742
455  6966.2708
454  6671.1258
453  7027.1286
452  6917.6355
451  7095.5719
450  7199.29
449  6962.7849
448  6694.4528
447  6753.5651
446  6921.2184
445  6935.6009
444  6843.6949
443  7066.9088
442  6758.0222
441  7018.2619
440  7021.0241
439  6977.4162
438  6788.3941
437  7037.7827
436  7192.4866
435  6872.1416
434  6772.3061
433  6938.5227
432  7141.6638
431  7145.787
430  7091.3406
429  6991.724
428  6616.4182
427  6890.3947
426  7201.0524
425  7018.0763
424  7119.1083
423  6994.4034
422  6873.7611
421  6973.7865
420  7204.4352
419  7013.0073
418  6811.0042
417  7038.4248
416  7175.3486
415  7223.0152
414  7243.7781
413  7118.5979
412  7165.5604
411  7024.4389
410  7079.5722
409  6911.1916
408  6787.8743
407  7030.4946
406  7163.753
405  6835.1705
404  7236.6995
403  6955.2753
402  7043.5303
401  7489.8108
400  7574.0779
399  7257.4645
398  7001.0322
397  7091.0344
396  7187.7836
395  7273.1391
394  7038.1474
393  7310.9844
392  7175.0719
391  7361.0809
390  7427.5226
389  7316.9302
388  7165.6362
387  6985.0473
386  7228.4663
385  6980.6829
384  6877.4027
383  7030.965
382  7184.0057
381  7283.5329
380  7101.1078
379  7269.6995
378  7266.1322
377  7130.0223
376  7174.0845
375  6947.6846
374  7347.5861
373  7298.4254
372  7075.0993
371  7157.7133
370  6943.4361
369  7075.3914
368  7329.0629
367  7493.2182
366  6964.1166
365  6997.8352
364  7025.4429
363  7325.8506
362  7317.1818
361  7241.4895
360  7307.7464
359  7078.5428
358  7463.1951
357  7238.578
356  7140.6992
355  7334.2292
354  7569.9027
353  7680.6301
352  7324.1866
351  7544.6998
350  7361.9721
349  7524.7352
348  7230.038
347  7347.2161
346  7044.3431
345  7002.6007
344  7192.7144
343  7346.253
342  7285.6707
341  7467.8376
340  7318.2648
339  7362.9005
338  7413.6929
337  7523.0766
336  7674.3954
335  7131.8435
334  7172.9628
333  7400.8194
332  7205.898
331  7395.8916
330  7355.1051
329  7338.7599
328  7050.431
327  7381.8761
326  7206.0966
325  7240.285
324  7153.1068
323  7782.4558
322  7626.6454
321  7402.6222
320  7546.925
319  7802.6331
318  7491.9443
317  7211.4572
316  7444.8174
315  7405.5248
314  7657.8788
313  7552.9149
312  7718.6613
311  7178.275
310  7193.0578
309  7184.4982
308  6885.0168
307  7066.7205
306  7373.3737
305  7201.286
304  7147.1629
303  7196.624
302  7556.6876
301  7152.3249
300  7116.5992
299  7257.2599
298  7195.7482
297  7452.4362
296  7255
295  7163.4713
294  7156.8283
293  6861.4079
292  7308.7787
291  7339.1269
290  7420.5965
289  7289.8307
288  7281.1336
287  7329.3051
286  7521.6054
285  7348.4587
284  7337.5012
283  7341.118
282  7321.772
281  7096.4721
280  7578.1103
279  7132.3722
278  6995.1443
277  7185.7267
276  7412.7978
275  7088.6742
274  7138.6797
273  7067.4622
272  7483.7067
271  7180.6536
270  6877.1897
269  7413.1261
268  7448.175
267  7238.6686
266  7183.0223
265  7192.3786
264  7300.1305
263  6798.2893
262  7079.1818
261  6822.6665
260  7029.8932
259  7143.8018
258  7087.6161
257  7002.5798
256  7285.87
255  7071.2283
254  6923.8252
253  6947.2629
252  7106.2462
251  6918.7217
250  7016.8504
249  6917.449
248  7206.1021
247  7140.1398
246  7525.8288
245  7505.3474
244  8153.8992
243  8599.8884
242  7407.235
241  6935.1226
240  7043.7542
239  7258.7988
238  6841.7298
237  6891.5777
236  6902.9034
235  7189.3836
234  6922.5369
233  6838.5838
232  6698.3949
231  6603.1688
230  6895.642
229  6999.6123
228  6790.4475
227  6563.1424
226  6851.3043
225  6570.6643
224  6890.2956
223  6638.6837
222  6646.4649
221  6475.2722
220  6670.7176
219  6863.3212
218  6585.4864
217  6794.641
216  6618.7912
215  6711.062
214  6669.3224
213  6707.8596
212  6563.7324
211  6502.3718
210  6620.9568
209  6719.8968
208  6674.6455
207  7013.7255
206  6789.7724
205  6860.8701
204  7119.9197
203  6950.5155
202  6725.7675
201  7042.7109
200  6796.7627
199  6654.4526
198  6659.2778
197  6624.8632
196  6751.102
195  6751.4129
194  6492.1228
193  7037.4479
192  6588.9474
191  6663.4193
190  6866.8427
189  6480.2852
188  6453.5574
187  6842.1431
186  6708.1523
185  6656.438
184  6914.9937
183  7337.1416
182  7050.928
181  7582.1806
180  7684.5438
179  7652.5826
178  7727.1732
177  7472.5198
176  7433.1863
175  7337.4827
174  6912.1166
173  6959.1216
172  6635.0065
171  6422.6901
170  6317.2499
169  6083.5916
168  5889.4695
167  5526.8168
166  5214.6698
165  5123.0745
164  5064.7875
163  4988.074
162  4863.8456
161  5036.8176
160  5216.7154
159  6554.6341
158  10484.36
157  18558.163
156  25981.005
155  22333.604
154  12732.128
153  7972.103
152  6374.0086
151  5911.5137
150  4981.3274
149  4238.6644
148  4231.6441
147  4200.496
146  3947.9456
145  3960.5756
144  3805.0696
143  3739.697
142  3841.1276
141  3661.5239
140  3615.1618
139  3519.3842
138  3665.9308
137  3553.0755
136  3441.5601
135  3430.5767
134  3470.8251
133  3693.1946
132  3798.2948
131  3790.0106
130  4052.1808
129  4186.2656
128  4231.0972
127  4355.2503
126  4169.3274
125  4099.5808
124  4050.4101
123  3965.6631
122  3614.1355
121  3305.4203
120  3352.3068
119  3393.2266
118  2965.1241
117  2659.2199
116  2407.8976
115  2147.3781
114  1985.5065
113  1738.1857
112  1642.8601
111  1464.838
110  1413.6768
109  1462.8662
108  1933.2715
107  4724.6631
106  14955.698
105  27563.014
104  21404.78
103  7401.2405
102  2345.7406
101  1439.6331
100  2248.9305
99  1725.2499
98  921.98244
97  946.8209
96  961.01117
95  974.53324
94  875.68256
93  933.32985
92  919.13995
91  866.53863
90  943.09214
89  893.11549
88  1001.2795
87  902.87531
86  891.63675
85  864.7186
84  936.23461
83  1086.6046
82  876.32773
81  912.70696
80  866.28805
79  994.35035
78  893.26121
77  859.27388
76  968.62558
75  867.86593
74  953.88284
73  968.92291
72  1030.1715
71  993.26293
70  996.98242
69  1043.7839
68  905.45376
67  989.08354
66  989.4535
65  1052.9985
64  996.1573
63  902.0059
62  1077.2193
61  1079.3129
60  1095.2608
59  1072.4852
58  1176.2337
57  1050.5916
56  1094.2084
55  1015.8035
54  1033.9254
53  1094.4363
52  1172.6633
51  1175.6297
50  1243.406
49  1109.0355
48  1096.7501
47  1140.2571
46  1064.2666
45  1048.4731
44  1116.899
43  960.83485
42  911.55416
41  960.66998
40  1064.0011
39  921.01271
38  840.75776
37  868.87955
36  828.8819
35  893.90849
34  870.90878
33  1050.7966
32  1107.5512
31  1298.5822
30  1497.0217
29  2345.1525
28  3454.3078
27  3965.0565
26  3871.0826
25  2196.7566
24  1127.2777
23  549.94908
22  376.02184
21  262.79005
20  210.56378
19  251.71846
18  308.88553
17  713.87898
16  1052.393
15  1130.0417
14  1090.9844
13  1169.0566
12  1071.3794
11  1134.0431
10  1036.665
9  1098.8299
8  836.04949
7  621.46871
6  299.1174
5  156.37486
4  108.21485
3  76.920295
2  54.232317
1  23.11745
0  16.62205