# Region:            Survey 30 s 1k 28uA H=1
# Acquisition Date:  11/07/19 17:06:07 UTC
# Analysis Method:   XPS
# Analyzer:          Phoibos
# Analyzer Lens:     MediumArea:1.5kV
# Analyzer Slit:     4:3x20\B:open
# Scan Mode:         FixedAnalyzerTransmission
# Curves/Scan:       1
# Values/Curve:      1301
# Dwell Time:        0.1
# Excitation Energy: 1486.71
# Binding Energy:    1300
# Pass Energy:       50
# Bias Voltage:      90
# Detector Voltage:  1900
# Eff. Workfunction: 4.395
# Source:            Focus
# Comment:           
#
# Cycle: 0
# Number of Scans: 2
#
# Cycle: 0, Curve: 0
# Acquisition Date: 11/07/19 17:06:07 UTC
#
# ColumnLabels: energy counts/s
#
1300  16338.936
1299  16032.576
1298  16006.937
1297  16077.88
1296  16688.868
1295  16728.883
1294  16773.916
1293  16232.298
1292  16759.916
1291  16114.799
1290  16166.26
1289  16254.891
1288  16667.047
1287  16615.035
1286  17177.709
1285  17347.176
1284  16798.817
1283  16939.784
1282  16432.783
1281  16695.695
1280  16412.295
1279  16882.742
1278  16963.444
1277  16676.378
1276  16807.469
1275  16695.178
1274  16681.348
1273  16934.367
1272  17205.87
1271  17035.063
1270  17334.18
1269  17446.318
1268  17264.194
1267  17231.323
1266  16974.745
1265  16886.674
1264  17292.925
1263  17435.105
1262  17725.984
1261  17725.864
1260  17544.369
1259  17689.737
1258  17610.522
1257  17428.922
1256  17049.562
1255  17059.771
1254  17399.469
1253  17731.894
1252  17221.455
1251  17436.933
1250  17394.723
1249  17678.307
1248  17853.361
1247  18008.061
1246  18069.817
1245  17938.398
1244  18399.709
1243  17592.227
1242  17575.168
1241  17824.54
1240  18274.047
1239  18353.725
1238  18577.021
1237  18445.909
1236  18502.303
1235  18425.077
1234  17914.605
1233  17892.397
1232  18631.317
1231  18959.086
1230  18980.438
1229  18953
1228  18871.671
1227  19093.712
1226  19267.815
1225  18924.33
1224  18884.374
1223  18357.825
1222  18218.978
1221  17987.311
1220  17703.367
1219  17271.962
1218  17046.401
1217  16796.473
1216  16503.454
1215  16555.178
1214  16280.806
1213  15992.878
1212  15588.441
1211  15763.046
1210  15399.022
1209  15318.155
1208  15577.466
1207  15359.61
1206  15505.4
1205  15648.769
1204  15802.064
1203  15154.462
1202  15208.341
1201  15185.853
1200  15590.046
1199  15674.585
1198  15435.072
1197  15826.136
1196  15774.284
1195  15809.923
1194  15513.814
1193  15404.383
1192  15764.974
1191  15604.7
1190  15302.291
1189  15203.575
1188  15411.39
1187  15644.096
1186  15613.549
1185  15384.265
1184  15655.894
1183  15265.311
1182  15359.748
1181  15205.292
1180  15349.974
1179  15287.618
1178  15232.776
1177  15787.967
1176  15745.152
1175  15345.565
1174  15816.793
1173  15695.745
1172  15759.604
1171  15658.279
1170  15352.045
1169  15162.065
1168  15541.647
1167  15573.059
1166  15754.887
1165  15883.938
1164  15245.849
1163  15545.067
1162  15237.342
1161  15603.175
1160  15586.951
1159  15243.819
1158  15449.956
1157  15738.004
1156  15284.394
1155  15687.849
1154  15529.447
1153  15680.407
1152  15776.257
1151  15359.581
1150  15718.724
1149  15590.571
1148  15236.289
1147  15663.738
1146  15180.696
1145  15282.633
1144  15700.216
1143  15741.133
1142  15620.45
1141  15564.718
1140  15844.257
1139  15859.679
1138  15674.54
1137  15941.052
1136  15947.705
1135  15798.674
1134  15549.718
1133  15649.375
1132  16016.687
1131  16511.526
1130  16239.073
1129  15899.491
1128  15796.974
1127  16080.242
1126  16097.435
1125  15832.781
1124  16014.784
1123  16039.426
1122  15855.349
1121  16402.672
1120  16354.173
1119  15911.48
1118  15920.336
1117  15853.328
1116  16204.966
1115  16427.514
1114  15817.409
1113  16436.995
1112  16310.908
1111  16487.003
1110  16360.947
1109  15791.689
1108  15924.464
1107  16480.531
1106  16076.192
1105  16494.494
1104  16383.432
1103  15769.513
1102  16238.342
1101  15591.387
1100  15941.632
1099  15981.071
1098  16015.671
1097  15749.522
1096  16286.14
1095  15952.785
1094  16360.063
1093  16144.716
1092  16448.266
1091  16358.588
1090  16274.647
1089  16201.366
1088  16626.973
1087  16182.826
1086  16133.873
1085  16295.823
1084  16290.154
1083  16427.058
1082  16284.687
1081  16322.254
1080  16407.219
1079  16068.881
1078  16655.52
1077  16173.366
1076  16124.393
1075  16617.73
1074  16752.917
1073  17965.635
1072  17977.049
1071  16740.523
1070  16533.505
1069  16980.101
1068  16404.147
1067  16521.929
1066  16031.899
1065  16434.026
1064  16399.666
1063  16057.296
1062  16411.863
1061  16802.601
1060  16644.841
1059  16296.268
1058  16343.243
1057  16553.427
1056  16897.454
1055  17037.146
1054  17237.361
1053  16806.162
1052  16971.829
1051  16521.867
1050  16433.406
1049  16897.793
1048  16708.615
1047  16567.562
1046  16804.836
1045  16935.946
1044  16756.543
1043  16717.346
1042  16709.492
1041  16406.999
1040  16798.558
1039  16634.129
1038  16781.533
1037  17074.364
1036  17397.13
1035  16831.374
1034  16602.873
1033  16615.268
1032  16896.481
1031  17082.653
1030  16920.74
1029  16810.114
1028  16960.258
1027  16886.156
1026  16893.244
1025  17255.923
1024  17223.06
1023  16775.853
1022  17284.756
1021  16948.45
1020  17014.96
1019  16601.043
1018  17303.916
1017  17784.564
1016  17203.601
1015  16620.015
1014  16740.387
1013  16332.002
1012  16470.5
1011  16536.651
1010  16392.835
1009  16821.659
1008  16575.633
1007  17189.106
1006  17448.769
1005  17082.66
1004  17562.007
1003  17533.668
1002  18110.056
1001  17887.888
1000  17567.87
999  16972.057
998  16502.324
997  16147.38
996  16035.492
995  15656.373
994  14958.604
993  14495.06
992  14684.166
991  14533.212
990  14458.794
989  14339.188
988  14541.017
987  13821.273
986  14247.585
985  15514.085
984  16621.544
983  16805.198
982  17985.228
981  19343.677
980  19591.953
979  18386.176
978  16366.585
977  15329.336
976  14191.31
975  13582.211
974  12729.536
973  12306.93
972  11660.083
971  11436.714
970  10666.159
969  9978.6312
968  9743.2496
967  9333.6856
966  9069.5244
965  9367.635
964  9774.1566
963  9645.5373
962  9470.9798
961  9662.4891
960  9959.485
959  9724.3603
958  9854.2169
957  9765.1176
956  9517.9563
955  9939.0682
954  9656.6903
953  9667.2227
952  9613.9452
951  9700.7816
950  9709.381
949  9798.0632
948  9837.4913
947  9382.0693
946  9816.4152
945  9687.1996
944  9675.4908
943  10007.921
942  9590.234
941  9571.8983
940  9771.0394
939  9737.0248
938  9969.9504
937  9535.6809
936  9869.9057
935  10362.856
934  9902.9521
933  9823.7396
932  9878.6204
931  9751.2745
930  9972.3856
929  10126.982
928  9989.6341
927  10028.024
926  10180.006
925  10448.437
924  10401.329
923  10324.887
922  10367.921
921  10347.042
920  10419.242
919  10241.832
918  10361.212
917  10331.164
916  10243.786
915  10034.447
914  10099.916
913  10179.221
912  10468.463
911  10360.038
910  10387.146
909  10217.977
908  10422.711
907  10545.231
906  10511.039
905  10393.662
904  10509.252
903  10440.198
902  10530.987
901  10304.217
900  10572.406
899  10422.527
898  10622.568
897  10630.991
896  10558.741
895  10630.551
894  10544.644
893  10519.306
892  10658.806
891  10471.353
890  10588.242
889  11121.362
888  11101.358
887  10719.099
886  10788.296
885  10763.367
884  11180.875
883  10780.641
882  10770.336
881  10962.898
880  10940.731
879  10782.153
878  10815.671
877  10996.311
876  11079.441
875  10939.055
874  11349.323
873  11130.346
872  11064.262
871  11179.084
870  11047.107
869  11252.341
868  11397.213
867  11573.016
866  11383.077
865  11497.7
864  11370.749
863  11378.916
862  11080.532
861  11515.817
860  11394.859
859  11207.505
858  11053.215
857  11216.915
856  11544.735
855  11516.599
854  11914.529
853  11925.374
852  11333.972
851  11774.702
850  11584.295
849  11535.718
848  11241.074
847  11644.86
846  12227.275
845  12125.451
844  11527.844
843  11961.05
842  12052.02
841  11686.144
840  11818.775
839  12151.819
838  12136.389
837  11951.679
836  11500.883
835  11852.007
834  12052.445
833  12119.96
832  12302.676
831  12160.008
830  12039.701
829  12243.261
828  12248.665
827  12009.041
826  12000.187
825  12098.395
824  12159.209
823  12502.481
822  12390.724
821  12364.644
820  12185.798
819  12396.159
818  11897.513
817  12286.211
816  13141.718
815  12626.762
814  12477.775
813  12887.209
812  12857.65
811  12566.019
810  12651.061
809  12677.702
808  12579.231
807  12565.384
806  12450.864
805  12575.292
804  12452.007
803  12306.083
802  12749.724
801  12751.326
800  12364.956
799  12677.056
798  12869.017
797  13407.754
796  12680.178
795  12933.261
794  13033.654
793  13206.778
792  12707.733
791  12781.246
790  13026.831
789  13402.764
788  13013.087
787  13478.578
786  13213.67
785  13118.882
784  12974.152
783  13206.934
782  13248.546
781  13488.156
780  13477.584
779  13228.85
778  13495.43
777  13553.113
776  13955.968
775  13596.287
774  13641.151
773  13222.687
772  13844.842
771  13810.718
770  13510.775
769  13352.403
768  13469.295
767  13907.549
766  13571.152
765  13743.673
764  13847.095
763  13382.045
762  13623.472
761  13435.887
760  13785.153
759  13995.077
758  13859.892
757  13568.26
756  13690.105
755  13225.298
754  13556.683
753  13815.738
752  14089.711
751  13895.898
750  13771.774
749  14010.066
748  13750.99
747  14251.166
746  14091.938
745  14070.356
744  13756.556
743  14158.075
742  14011.142
741  14279.531
740  14179.475
739  14700.633
738  14214.727
737  14283.358
736  14134.601
735  14269.682
734  14389.173
733  14676.272
732  14515.802
731  14258.36
730  14354.468
729  14505.893
728  14851.702
727  14422.556
726  14224.269
725  14456.569
724  14161.208
723  14619.346
722  14782.779
721  14848.673
720  14620.635
719  14979.039
718  14582.609
717  14371.475
716  14665.027
715  14250.977
714  14612.97
713  14847.432
712  14755.955
711  14573.414
710  14564.794
709  14976.913
708  14853.446
707  15032.042
706  15027.779
705  14913.555
704  14977.065
703  14898.012
702  14588.508
701  14758.91
700  14770.136
699  15021.547
698  15133.102
697  15406.033
696  15014.429
695  15427.432
694  15020.553
693  15448.718
692  15161.95
691  15152.984
690  15066.131
689  15276.176
688  14894.39
687  15346.801
686  15039.225
685  15315.313
684  15053.001
683  14979.407
682  15498.163
681  15833.867
680  15427.35
679  15261.365
678  14822.844
677  15599.371
676  15257.21
675  15563.602
674  16012.964
673  15566.478
672  16140.815
671  16006.888
670  15762.836
669  15706.863
668  15730.393
667  15884.237
666  16089.517
665  16286.352
664  15727.251
663  15711.931
662  15818.328
661  15997.973
660  16319.605
659  15735.439
658  15910.033
657  15709.326
656  15835.217
655  16210.949
654  15990.713
653  15981.362
652  15643.056
651  16389.878
650  16010.829
649  16504.963
648  16648.548
647  15971.567
646  16639.621
645  16361.857
644  16230.582
643  15603.348
642  16195.43
641  16250.352
640  16175.111
639  16177.41
638  16352.327
637  16469.996
636  16784.146
635  16587.846
634  16683.165
633  16723.425
632  17114.591
631  16935.124
630  17143.722
629  16512.672
628  16880.354
627  16569.923
626  16630.938
625  16867.525
624  17002.441
623  17329.933
622  16888.385
621  16770.901
620  16869.31
619  17179.938
618  17063.045
617  17044.771
616  17267.052
615  16979.409
614  17005.194
613  17501.207
612  16686.222
611  16722.552
610  17126.379
609  17016.669
608  17003.777
607  17397.753
606  17333.285
605  17253.774
604  16852.74
603  16947.778
602  17192.442
601  17235.429
600  16841.826
599  17081.839
598  17356.277
597  17898.222
596  17451.078
595  17256.124
594  17010.78
593  16823.988
592  17359.323
591  17400.119
590  17514.348
589  16956.051
588  17069.904
587  17556.007
586  17646.553
585  17276.055
584  16904.877
583  17537.094
582  17524.057
581  17609.246
580  17441.371
579  17421.126
578  17306.018
577  17014.916
576  16884.546
575  16381.471
574  16899.237
573  17064.541
572  16757.76
571  16577.589
570  16805.244
569  16222.758
568  15807.33
567  15661.993
566  15874.062
565  15828.196
564  16365.361
563  16673.27
562  17186.57
561  18352.861
560  18191.485
559  18988.348
558  19290.526
557  19791.454
556  20485.028
555  20506.909
554  19083.743
553  18192.516
552  17195.813
551  16044.389
550  15293.222
549  14880.111
548  13920.913
547  13049.084
546  12214.682
545  10745.961
544  9746.6477
543  7985.5032
542  7287.3256
541  7313.0805
540  7356.2452
539  7417.0178
538  7742.0082
537  8361.7019
536  10553.851
535  23801.932
534  77322.351
533  86611.521
532  29710.474
531  10151.772
530  6765.0519
529  6080.4735
528  5565.4996
527  5631.7443
526  5581.0761
525  5646.4632
524  5683.3161
523  5761.3674
522  5924.6119
521  5876.1786
520  5762.8371
519  5712.3595
518  5631.4813
517  5566.1161
516  5590.1327
515  5740.0418
514  5810.8489
513  5394.4321
512  5689.248
511  5777.1941
510  5466.9947
509  5369.6553
508  5628.6865
507  5337.2311
506  5658.4292
505  5613.2854
504  5938.1699
503  5750.9452
502  5859.9491
501  5801.0483
500  6027.1321
499  6206.4142
498  6557.0786
497  5902.7578
496  5621.3072
495  5457.16
494  5720.0099
493  5648.6173
492  5542.3416
491  5531.6213
490  5376.0804
489  5620.4116
488  5430.8373
487  5601.682
486  5682.4603
485  5623.7896
484  5766.8655
483  5844.3772
482  5797.765
481  5881.9627
480  5469.3199
479  5499.3993
478  5879.8987
477  5724.2118
476  5606.1388
475  5507.6546
474  5612.1818
473  5674.5109
472  5591.1488
471  5471.0997
470  5626.3275
469  5579.3179
468  5564.6148
467  5557.3695
466  5590.4652
465  5824.7716
464  5630.5282
463  5467.2322
462  5610.9437
461  5454.009
460  5919.6864
459  5595.1205
458  5654.6109
457  5655.6286
456  5721.6365
455  5775.1416
454  5651.4889
453  5565.3838
452  5666.5064
451  5673.8078
450  5796.7683
449  5482.6557
448  5605.9939
447  5701.896
446  5591.05
445  5554.7228
444  5707.6417
443  5748.8993
442  5799.6313
441  5917.997
440  5746.4294
439  5751.8445
438  5738.3004
437  5629.281
436  5417.2406
435  5811.7885
434  5782.3025
433  5779.1074
432  5854.72
431  5782.7086
430  5970.1606
429  5561.1221
428  5716.669
427  5761.2059
426  5835.1348
425  5870.8857
424  5578.5154
423  5735.9011
422  5618.9909
421  5620.899
420  5893.3176
419  5983.5417
418  5487.2358
417  5655.9158
416  6004.4294
415  5874.5741
414  6035.1791
413  5922.0618
412  5685.8368
411  5687.263
410  6062.6666
409  6052.6469
408  5968.0489
407  6042.0413
406  5988.4468
405  5674.4652
404  5821.35
403  5935.9638
402  6057.8058
401  6218.3275
400  6126.4135
399  6136.2197
398  5942.3825
397  5779.442
396  5624.9118
395  5727.63
394  5892.2792
393  5738.5041
392  5827.1885
391  5851.238
390  5603.9243
389  5806.8936
388  5802.7214
387  5746.4863
386  5787.725
385  5800.219
384  5734.762
383  5860.642
382  5790.256
381  5895.4833
380  5724.438
379  6168.0105
378  6101.7982
377  5865.6289
376  6005.0038
375  5961.9016
374  5738.2299
373  6141.08
372  6520.3659
371  6143.0396
370  6042.6245
369  6324.6127
368  6058.2438
367  6326.3543
366  6463.1235
365  5856.5474
364  6020.3679
363  5929.8898
362  6162.4079
361  6093.0034
360  6164.5473
359  6073.5425
358  6311.5058
357  6233.4349
356  5940.6465
355  6173.9799
354  6301.1906
353  6477.2095
352  6383.1249
351  6469.5472
350  6680.8668
349  6729.6118
348  6983.553
347  6630.1611
346  6463.7282
345  6348.7124
344  6297.2012
343  6269.035
342  6301.5146
341  6144.4461
340  6414.0371
339  6401.5151
338  6250.2327
337  6454.9126
336  6342.1916
335  6449.8637
334  6306.7637
333  6363.0079
332  6385.7672
331  6337.584
330  6425.5079
329  6452.9537
328  6554.8148
327  6522.0078
326  6708.6787
325  6359.6848
324  6394.3207
323  6431.5967
322  6543.5695
321  6813.4577
320  7054.0362
319  6943.6496
318  6698.1016
317  6806.5048
316  6932.7916
315  6954.0688
314  6976.1623
313  6702.4798
312  6576.0397
311  7069.8882
310  6915.3828
309  6854.5202
308  7030.6089
307  6978.0741
306  6910.8213
305  6774.6547
304  7224.7109
303  6865.8994
302  6546.3686
301  6577.8176
300  6670.318
299  6592.0723
298  6349.0661
297  6283.9183
296  6435.5468
295  6542.6881
294  6343.7712
293  6261.035
292  6293.2309
291  6335.7901
290  6631.3466
289  6729.5686
288  7414.5308
287  10390.896
286  21091.205
285  23769.153
284  10002.219
283  5862.8436
282  5304.6897
281  5454.1625
280  5704.3536
279  5521.07
278  5257.9112
277  5708.1891
276  5646.7471
275  5527.756
274  5388.9071
273  5458.2512
272  5509.7835
271  5777.9331
270  5893.3412
269  5785.5007
268  5734.5913
267  5766.5832
266  5630.6087
265  5643.5551
264  5609.3476
263  5587.3775
262  5608.6726
261  5568.8567
260  5310.7682
259  5618.3555
258  5761.0052
257  5411.5293
256  5329.8133
255  5552.1504
254  5630.9827
253  5230.1836
252  5654.5068
251  5652.5784
250  5664.4344
249  5693.4728
248  5599.5218
247  5551.2895
246  5413.8674
245  5395.7128
244  5546.4911
243  5748.3742
242  5435.9414
241  5676.5754
240  5759.2676
239  5378.8447
238  5788.6843
237  5576.794
236  5813.8024
235  5653.3133
234  5728.1767
233  5808.8846
232  5513.8424
231  5809.7283
230  5710.1061
229  5513.525
228  5710.9896
227  5619.6925
226  5621.5339
225  5718.6755
224  5849.2643
223  5877.8894
222  5727.4981
221  5620.8273
220  5705.4182
219  5732.6995
218  5526.9686
217  5809.3396
216  5822.4095
215  5675.4192
214  5545.786
213  5576.8705
212  5715.8662
211  5462.0593
210  5768.6948
209  5644.3585
208  5617.2408
207  5907.1389
206  5700.554
205  5680.7874
204  5973.9562
203  6029.5195
202  5537.6021
201  5881.0736
200  5864.4275
199  5697.412
198  5764.157
197  5796.2405
196  5758.5428
195  5673.8757
194  5753.9773
193  5808.0666
192  5925.7992
191  5680.2548
190  5762.1404
189  5629.0422
188  5655.2422
187  5534.3178
186  5737.1636
185  5875.9381
184  5681.0212
183  6027.1161
182  6021.5378
181  6253.3239
180  6632.1321
179  6845.4353
178  6787.6367
177  6363.4572
176  6542.5858
175  6511.2719
174  6411.5936
173  6017.2322
172  6160.8305
171  5835.8907
170  5956.5773
169  5468.2287
168  4998.4222
167  4944.2201
166  4503.712
165  4104.5944
164  4273.5198
163  3992.267
162  3901.7088
161  4161.5341
160  4261.104
159  4546.777
158  5591.6009
157  8516.5657
156  15490.36
155  19681.567
154  15061.225
153  9120.9501
152  5719.8648
151  4474.6966
150  3892.6048
149  3908.5934
148  3546.044
147  3454.7463
146  3454.0712
145  3390.4339
144  3498.9449
143  3435.5173
142  3347.8808
141  3234.9678
140  3459.9354
139  3337.2451
138  3225.1939
137  2964.9751
136  3177.2635
135  3438.027
134  3327.1193
133  3212.3069
132  3521.7919
131  3558.6537
130  3677.9348
129  3839.3107
128  3941.2379
127  4139.1539
126  4088.5915
125  3794.5118
124  3991.7275
123  3743.2435
122  3778.0674
121  3517.868
120  3444.0452
119  3082.3557
118  2697.5336
117  2423.7225
116  2204.5484
115  2127.3139
114  1775.971
113  1420.5208
112  1277.1896
111  1243.9588
110  1424.3455
109  1362.8312
108  1425.094
107  1752.8534
106  4149.3853
105  14658.305
104  22449.334
103  11587.877
102  4614.7009
101  1538.7934
100  1169.0833
99  1003.0178
98  1043.1932
97  1112.6621
96  1066.0149
95  1051.7675
94  1096.8897
93  912.27566
92  969.26097
91  1055.0906
90  1043.8769
89  1026.1809
88  953.58648
87  974.53751
86  1045.9105
85  1002.7517
84  1141.023
83  1063.3865
82  1021.6284
81  1029.0682
80  996.30978
79  1038.2272
78  1089.8084
77  1152.9036
76  1062.6758
75  1124.69
74  1075.2463
73  1138.0178
72  1133.3496
71  1098.9424
70  1061.2245
69  1136.6992
68  966.92409
67  1085.9215
66  1112.5044
65  1183.2489
64  1205.4275
63  1097.2876
62  1069.3932
61  1102.7005
60  1146.4987
59  1019.4764
58  1118.939
57  1045.1652
56  1217.0336
55  1080.3692
54  1279.7638
53  1272.5089
52  1271.5172
51  1348.7136
50  1268.5865
49  1232.8417
48  1229.7296
47  1134.5665
46  1141.2503
45  1086.1021
44  1049.9937
43  962.38793
42  869.50399
41  979.88428
40  952.95359
39  814.08132
38  862.21796
37  790.9336
36  659.07388
35  810.21783
34  763.52813
33  943.15902
32  899.66072
31  1072.1655
30  1279.7233
29  1498.3532
28  2084.8107
27  3202.6353
26  3711.011
25  2682.4964
24  1201.1383
23  656.48278
22  457.3828
21  303.41133
20  373.09093
19  375.7083
18  470.70533
17  550.79652
16  687.1938
15  888.83251
14  943.38294
13  897.95473
12  874.38079
11  559.73347
10  773.50059
9  883.18024
8  899.95524
7  691.09883
6  294.80684
5  147.96123
4  47.3326
3  19.200375
2  32.703278
1  18.009981
0  21.226819