# Region:            Survey 60 s 3k 36uA H=5
# Acquisition Date:  11/07/19 17:53:09 UTC
# Analysis Method:   XPS
# Analyzer:          Phoibos
# Analyzer Lens:     MediumArea:1.5kV
# Analyzer Slit:     4:3x20\B:open
# Scan Mode:         FixedAnalyzerTransmission
# Curves/Scan:       1
# Values/Curve:      1301
# Dwell Time:        0.1
# Excitation Energy: 1486.71
# Binding Energy:    1300
# Pass Energy:       50
# Bias Voltage:      90
# Detector Voltage:  1900
# Eff. Workfunction: 4.395
# Source:            Focus
# Comment:           
#
# Cycle: 0
# Number of Scans: 2
#
# Cycle: 0, Curve: 0
# Acquisition Date: 11/07/19 17:53:09 UTC
#
# ColumnLabels: energy counts/s
#
1300  16656
1299  16303.654
1298  16062.247
1297  15708.256
1296  15778.071
1295  16377.518
1294  16371.889
1293  15929.754
1292  16493.864
1291  16145.606
1290  16124.908
1289  16563.435
1288  16299.255
1287  16375.366
1286  16335.4
1285  16611.984
1284  16433.684
1283  16096.282
1282  16573.919
1281  16434.288
1280  16355.835
1279  16450.135
1278  16510.584
1277  16550.427
1276  16107.363
1275  16292.032
1274  16586.224
1273  16285.801
1272  16287.333
1271  16694.515
1270  16271.223
1269  15898.807
1268  15759.614
1267  15798.153
1266  15846.257
1265  16092.741
1264  16006.243
1263  16706.943
1262  16708.058
1261  16628.594
1260  16657.044
1259  16415.632
1258  16625.066
1257  16766.791
1256  16865.674
1255  17391.135
1254  16557.756
1253  16702.389
1252  16670.771
1251  17005.564
1250  16861.755
1249  17460.43
1248  17306.58
1247  17133.739
1246  16847.846
1245  17055.031
1244  16829.455
1243  16623.145
1242  17314.885
1241  17377.637
1240  17266.707
1239  16937.874
1238  17411.761
1237  17540.362
1236  17389.672
1235  17155.816
1234  17319.952
1233  17542.694
1232  17337.911
1231  17361.105
1230  17782.954
1229  17502.992
1228  17705.003
1227  18014.496
1226  17961.595
1225  18494.668
1224  17672.514
1223  17983.095
1222  17848.781
1221  18040.338
1220  17181.694
1219  17630.779
1218  17562.437
1217  17148.733
1216  17030.409
1215  17235.226
1214  16735.134
1213  16095.223
1212  15982.88
1211  15897.585
1210  15922.473
1209  15555.703
1208  15393.065
1207  15625.716
1206  15857.205
1205  15620.35
1204  15763.957
1203  15429.338
1202  15628.617
1201  15832.859
1200  16121.492
1199  15532.016
1198  15580.117
1197  15452.928
1196  15736.227
1195  16627.145
1194  15603.987
1193  15766.145
1192  16161.358
1191  16253.434
1190  15937.908
1189  15512.576
1188  15832.374
1187  15639.682
1186  15584.543
1185  15479.504
1184  15642.492
1183  15523.981
1182  15711.336
1181  16327.167
1180  15768.759
1179  15722.943
1178  15779.317
1177  15457.179
1176  15963.682
1175  15838.236
1174  15768.696
1173  15495.855
1172  15529.016
1171  15549.123
1170  15933.676
1169  16065.082
1168  15641.637
1167  15826.68
1166  15604.456
1165  15479.833
1164  15903.219
1163  15458.62
1162  15539.646
1161  15352.1
1160  15668.098
1159  15824.334
1158  15781.456
1157  15785.495
1156  15457.62
1155  15459.541
1154  15565.802
1153  15904.717
1152  15878.472
1151  15622.711
1150  15792.261
1149  15477.619
1148  15674.979
1147  16058.989
1146  15884.241
1145  16280.744
1144  16193.601
1143  16005.093
1142  16107.34
1141  15954.493
1140  16218.458
1139  15964.179
1138  15824.589
1137  16094.459
1136  15577.549
1135  15782.153
1134  15945.383
1133  15922.423
1132  15940.644
1131  16078.274
1130  15836.756
1129  15601.22
1128  16227.06
1127  15963.022
1126  16163.728
1125  16012.126
1124  16159.361
1123  16481.369
1122  16031.398
1121  16058.041
1120  15913.667
1119  16015.472
1118  15775.342
1117  15928.708
1116  16050.539
1115  16300.794
1114  15780.649
1113  15908.178
1112  16535.959
1111  16481.07
1110  16428.667
1109  16183.834
1108  16061.787
1107  15907.7
1106  16071.94
1105  16061.466
1104  16115.405
1103  15877.454
1102  16539.644
1101  16529.61
1100  16505.882
1099  16331.287
1098  16188.485
1097  15817.526
1096  16542.225
1095  16439.07
1094  16696.719
1093  16346.1
1092  16587.551
1091  16738.612
1090  16921.821
1089  16565.806
1088  16745.142
1087  16959.231
1086  16392.264
1085  16656.978
1084  16435.526
1083  16141.234
1082  16670.812
1081  16534.417
1080  16895.626
1079  16687.495
1078  16328.032
1077  16650.52
1076  17437.133
1075  17823.516
1074  17552.091
1073  17680.357
1072  16682.371
1071  16519.008
1070  17081.581
1069  16903.228
1068  16798.387
1067  16850.405
1066  17316.823
1065  17530.369
1064  17291.711
1063  17023.935
1062  17365.509
1061  16923.376
1060  17209.839
1059  17772.748
1058  17483.796
1057  17258.958
1056  17359.945
1055  17112.35
1054  16817.545
1053  17224.264
1052  17406.837
1051  17042.666
1050  17206.001
1049  17885.753
1048  17664.952
1047  18194.613
1046  17955.645
1045  17442.409
1044  17363.964
1043  17385.827
1042  17382.915
1041  17768.574
1040  18044.719
1039  17349.523
1038  17723.166
1037  17965.112
1036  18364.244
1035  18078.139
1034  17440.411
1033  18230.05
1032  17996.12
1031  17623.628
1030  17999.313
1029  17990.791
1028  18269.931
1027  18810.225
1026  18165.795
1025  18367.975
1024  18877.532
1023  18986.615
1022  18271.547
1021  18445.785
1020  18893.509
1019  19358.079
1018  19028.518
1017  18426.548
1016  18980.921
1015  18448.472
1014  18402.73
1013  18434.359
1012  18673.2
1011  18477.902
1010  18869.229
1009  18483.965
1008  19342.927
1007  19656.688
1006  20013.423
1005  20433.891
1004  20919.631
1003  20984.619
1002  21275.736
1001  20636.005
1000  19553.628
999  18963.347
998  18107.237
997  17857.716
996  17880.106
995  17364.312
994  16945.022
993  16845.17
992  16719.811
991  16478.447
990  17197.497
989  17229.607
988  17907.458
987  17980.914
986  18850.956
985  20953.489
984  22590.532
983  24295.369
982  25233.171
981  26038.193
980  24669.842
979  21978.941
978  20146.413
977  18838.348
976  16515.126
975  15579.816
974  14168.921
973  13517.764
972  12880.789
971  11952.366
970  11381.707
969  10544.988
968  10425.201
967  9655.3592
966  9789.8397
965  9351.3236
964  9555.708
963  9465.8477
962  9412.6285
961  9817.5959
960  9787.3779
959  9666.557
958  9494.3605
957  9204.2664
956  9323.3819
955  9378.0281
954  9232.7741
953  9481.6116
952  9643.2983
951  9374.3466
950  9263.1671
949  9740.8527
948  9620.6469
947  9470.5141
946  9615.9677
945  9748.7496
944  9837.958
943  10227.566
942  9621.278
941  9664.1808
940  9796.058
939  9956.8228
938  9780.7203
937  9657.9146
936  9793.9452
935  10321.487
934  9969.986
933  9700.1454
932  9889.1085
931  10088.407
930  10154.389
929  10077.82
928  9990.146
927  9957.6631
926  9818.7159
925  9624.7186
924  9854.4712
923  10151.047
922  9999.2036
921  10125.415
920  10273.157
919  10530.185
918  10020.222
917  9929.1258
916  10092.447
915  10467.179
914  10301.407
913  10368.632
912  10356.919
911  10191.359
910  10476.027
909  10377.795
908  10332.617
907  10646.818
906  10417.026
905  10472.338
904  10383.27
903  10233.617
902  10258.388
901  10537.158
900  10614.916
899  10682.009
898  10294.133
897  10643.449
896  10663.378
895  10506.139
894  10427.534
893  10532.305
892  10591.724
891  10785.234
890  10623.854
889  11034.273
888  10723.976
887  11464.907
886  11052.447
885  10802.558
884  10473.307
883  10905.434
882  11097.508
881  11172.76
880  10692.091
879  10776.915
878  11145.723
877  11275.457
876  11041.978
875  11259.515
874  11448.6
873  11038.522
872  10832.935
871  11002.45
870  11332.719
869  11392.973
868  11098.639
867  11403.4
866  11163.855
865  10667.423
864  10860.392
863  11251.214
862  11078.856
861  11593.949
860  11602.753
859  11423.069
858  11039.181
857  11377.994
856  11777.369
855  11267.638
854  11150.041
853  11215.718
852  11725.324
851  11624.688
850  11969.961
849  11288.419
848  11476.506
847  11658.875
846  11812.281
845  12027.164
844  11564.436
843  11805.533
842  11984.608
841  12125.469
840  11671.553
839  11993.74
838  12025.7
837  12278.109
836  12402.851
835  12299.779
834  12186.981
833  11934.095
832  11962.884
831  11841.707
830  12193.382
829  11943.685
828  12339.649
827  12330.255
826  11959.688
825  11964.574
824  12491.196
823  12221.06
822  12126.034
821  12545.87
820  12422.96
819  12304.534
818  12702.456
817  12633.58
816  12479.585
815  12414.156
814  12357.868
813  12455.149
812  12485.719
811  12127.877
810  12522.139
809  12746.972
808  12653.286
807  12237.57
806  12833.414
805  12932.282
804  12744.401
803  12843.705
802  12529.821
801  12286.584
800  12832.135
799  13016.781
798  12871.492
797  12964.388
796  12989.179
795  13371.008
794  13158.553
793  12907.491
792  13080.586
791  13190.608
790  12913.791
789  13230.84
788  13370.186
787  13353.711
786  13444.381
785  13400.959
784  13549.669
783  13440.464
782  13147.041
781  13659.842
780  13653.946
779  13257.866
778  13340.011
777  13564.625
776  13738.456
775  13290.853
774  13908.581
773  13430.558
772  13279.771
771  13443.825
770  13805.668
769  13600.349
768  14008.597
767  13710.771
766  13678.083
765  14061.499
764  13612.93
763  13734.988
762  13965.304
761  13716.751
760  14266.273
759  13865.604
758  13486.434
757  13504.874
756  13508.908
755  13776.619
754  13658.233
753  13766.543
752  14007.358
751  13886.92
750  13444.359
749  14077.792
748  13963.832
747  14273.24
746  14147.441
745  13837.451
744  14211.979
743  14358.866
742  14102.336
741  14456.92
740  13914.919
739  13853.819
738  14329.754
737  13855.816
736  14033.866
735  14778.278
734  14550.191
733  14583.096
732  14284.178
731  14323.078
730  14606.139
729  14462.064
728  14200.997
727  14617.472
726  15035.459
725  14679.979
724  14635.89
723  15075.182
722  14975.322
721  14665.679
720  14979.826
719  14443.463
718  14951.823
717  15100.591
716  14711.304
715  15191.202
714  15519.211
713  15262.069
712  15107.83
711  14751.336
710  15136.891
709  15026.451
708  15108.957
707  14777.585
706  14996.935
705  15410.267
704  15081.894
703  15465.821
702  14857.33
701  14705.531
700  15258.05
699  15568.941
698  15506.966
697  15496.616
696  15440.986
695  15502.225
694  15879.155
693  15518.42
692  15544.732
691  15219.075
690  15217.54
689  15610.027
688  15922.598
687  15542.387
686  15735.366
685  15618.361
684  15636.137
683  15419.095
682  15461.89
681  15296.346
680  15236.283
679  15444.882
678  16432.967
677  16147.392
676  16337.144
675  15654.347
674  15808.731
673  15423.191
672  16069.648
671  15573.092
670  15974.387
669  15905.523
668  16129.103
667  16250.843
666  16082.532
665  16104.666
664  16067.783
663  15862.218
662  16293.115
661  16431.783
660  15964.602
659  16568.024
658  16281.28
657  16398.637
656  16517.602
655  15983.253
654  16289.794
653  16553.292
652  16678.306
651  16609.465
650  16472.597
649  16710.392
648  16580.471
647  16743.168
646  16753.331
645  16562.283
644  16727.32
643  16826.069
642  16817.581
641  16367.432
640  16646.618
639  16509.575
638  16926.578
637  16805.046
636  17163.749
635  17098.282
634  16871.527
633  16784.62
632  16647.394
631  16838.997
630  16947.605
629  16917.351
628  16907.48
627  16856.736
626  17226.54
625  17330.782
624  17296.163
623  17536.899
622  17626.651
621  17721.072
620  17549.714
619  17053.638
618  17463.799
617  17557.372
616  17437.276
615  17553.279
614  17656.179
613  17854.706
612  18287.531
611  17825.103
610  17744
609  17577.904
608  17327.271
607  17466.609
606  17970.453
605  17959.072
604  18373.201
603  18756.021
602  18460.954
601  17787.484
600  17696.684
599  17846.18
598  17782.656
597  18159.065
596  18221.414
595  17805.795
594  17845.994
593  18274.161
592  17900.379
591  18342.37
590  18172.439
589  18020.725
588  18017.275
587  18184.11
586  18371.895
585  18317.754
584  19009.443
583  18660.537
582  19199.576
581  18965.709
580  18782.288
579  18784.099
578  18358.079
577  18119.051
576  18921.418
575  18489.363
574  18216.44
573  18149.594
572  18066.082
571  17705.576
570  18259.829
569  18108.864
568  17576.391
567  17342.923
566  17436.595
565  17791.524
564  18114.408
563  18939.314
562  19477.739
561  20192.705
560  21498.146
559  21706.031
558  22123.094
557  22043.803
556  21662.941
555  21279.485
554  19971.366
553  18469.553
552  17501.817
551  16784.908
550  16151.564
549  14928.991
548  14727.246
547  13326.679
546  12461.096
545  11638.597
544  10512.673
543  9355.7538
542  8266.3469
541  8249.624
540  8035.1722
539  8391.9893
538  9688.2858
537  13350.342
536  23537.413
535  64117.348
534  116256.57
533  76423.748
532  22663.618
531  9693.8071
530  7050.9958
529  6197.1008
528  6099.551
527  5970.2189
526  6031.2878
525  6022.5868
524  5777.7921
523  5605.173
522  5863.4137
521  5582.6065
520  5488.7197
519  5703.6604
518  5555.1289
517  5746.9799
516  5837.3457
515  5718.75
514  5762.8001
513  5856.1702
512  5754.6666
511  5439.2421
510  5793.8021
509  6033.8112
508  5688.9035
507  5658.7443
506  5846.4511
505  5753.1527
504  5795.9175
503  5839.2306
502  6161.544
501  6165.7784
500  6541.2827
499  6131.4595
498  5953.1492
497  5913.1215
496  5783.0064
495  5555.5091
494  5557.2421
493  5881.863
492  5820.9417
491  5672.3714
490  5687.1379
489  5644.4895
488  5668.8923
487  5808.453
486  5946.243
485  5855.8611
484  5580.1521
483  5681.2894
482  5768.627
481  5626.9625
480  5748.2438
479  5776.453
478  5826.5212
477  6008.6726
476  5611.2251
475  5852.2453
474  5875.5982
473  5812.1713
472  5453.0542
471  5667.0011
470  5651.699
469  5777.6468
468  5939.0912
467  5908.2728
466  5718.9204
465  5481.6187
464  5760.157
463  6033.6479
462  6075.962
461  5935.2999
460  5587.4319
459  5627.6983
458  6012.9837
457  6020.8221
456  5807.9267
455  5809.8473
454  5976.8515
453  5826.9882
452  5723.5726
451  5655.2914
450  5791.4563
449  5523.8391
448  5871.2251
447  6056.3557
446  6046.2495
445  6185.7473
444  5877.006
443  5994.6709
442  5930.8876
441  6167.2161
440  6256.7934
439  6527.2585
438  6184.9827
437  6172.4618
436  6114.321
435  5949.1407
434  5736.0277
433  5709.2453
432  6104.0399
431  5880.7698
430  6040.038
429  5870.9816
428  5824.5153
427  6028.8617
426  5940.6334
425  5795.0514
424  5886.9498
423  5792.3569
422  6151.3622
421  6031.4886
420  5947.0603
419  5680.4939
418  5933.5697
417  5981.8603
416  6261.746
415  6108.26
414  5955.3805
413  5777.0407
412  5928.9517
411  6246.3312
410  5812.6987
409  5842.3499
408  5798.5152
407  5985.0723
406  5874.6986
405  5777.5358
404  5894.2934
403  5900.7943
402  5962.48
401  6096.3931
400  6302.3487
399  6504.0183
398  6077.585
397  6045.4031
396  5963.0604
395  5740.9985
394  5989.0159
393  6035.3714
392  6413.0588
391  5952.436
390  5954.0624
389  5758.5997
388  5972.8984
387  5942.1926
386  6106.1739
385  6149.5001
384  6186.3108
383  6471.1398
382  6022.4478
381  5704.7928
380  6228.0604
379  6352.4498
378  6023.3818
377  6101.064
376  6012.5535
375  6194.9668
374  6277.4559
373  6093.4705
372  6236.3517
371  5947.536
370  6069.3774
369  6350.7222
368  6205.1471
367  6173.0016
366  5713.445
365  5955.4152
364  6082.6448
363  6167.6604
362  6325.3066
361  5878.988
360  6252.504
359  6164.187
358  6157.9302
357  6182.4865
356  6229.6659
355  6453.6557
354  6175.2891
353  6251.9893
352  6654.7497
351  6420.0127
350  6727.6022
349  6671.5633
348  6565.6586
347  6379.5104
346  6343.2417
345  6391.5355
344  6264.8019
343  6144.6015
342  6350.2148
341  5961.8443
340  6231.1754
339  6619.5253
338  6291.9364
337  6305.3533
336  6349.011
335  6295.4476
334  6528.095
333  6336.5504
332  6336.3395
331  6212.0928
330  6252.7243
329  6164.3566
328  6094.7698
327  6076.1369
326  6154.9735
325  6359.0213
324  6522.9088
323  6348.5977
322  6481.0136
321  6518.5438
320  6497.2346
319  6559.3215
318  6215.8591
317  6212.2678
316  6188.618
315  6631.9221
314  6514.4889
313  6505.7826
312  6360.4569
311  6378.2234
310  6546.8469
309  6535.0859
308  6658.4669
307  6620.2141
306  6612.7707
305  6360.8069
304  6507.6076
303  6661.0677
302  6630.0643
301  6141.8712
300  6230.5835
299  6253.3011
298  6337.6775
297  6523.881
296  6120.6312
295  6494.4719
294  6325.555
293  6348.965
292  6536.4576
291  6362.4066
290  6521.6964
289  7104.2251
288  7255.2433
287  9478.5299
286  12549.183
285  11783.202
284  7952.9111
283  6393.6485
282  6096.5884
281  5811.0164
280  6055.6569
279  5667.0497
278  5576.4376
277  5852.5129
276  5990.3643
275  6084.0846
274  5855.2185
273  5980.8837
272  5910.2463
271  5947.7392
270  5914.5415
269  6066.2457
268  5977.0314
267  5784.1119
266  5920.127
265  5669.4036
264  5879.0806
263  5496.4043
262  5942.3072
261  5799.0592
260  5825.205
259  5975.8384
258  5775.8193
257  5794.4828
256  5922.2495
255  5835.3269
254  5690.7789
253  5558.2021
252  5751.1306
251  5859.8777
250  5980.706
249  6021.4718
248  5705.6366
247  5897.3137
246  6149.4804
245  6057.2292
244  6016.706
243  6166.7515
242  5911.4583
241  5248.8812
240  5752.7145
239  5969.0744
238  5973.4788
237  5889.6374
236  5789.5611
235  5907.4014
234  5778.0978
233  5728.0675
232  5994.1578
231  5842.068
230  5710.9493
229  5728.7323
228  5698.1694
227  5725.3392
226  5748.859
225  5769.0824
224  5831.9198
223  6108.774
222  5865.0219
221  5763.0932
220  5844.8644
219  5771.386
218  5973.7692
217  5563.3497
216  5684.6493
215  5823.5652
214  5857.0337
213  5984.1042
212  6049.4168
211  6300.067
210  5838.0725
209  5762.4884
208  5692.2402
207  5927.9192
206  6070.2601
205  6236.9627
204  6075.2783
203  6452.2264
202  6171.4976
201  5855.5283
200  6120.7156
199  6393.1267
198  6500.0874
197  6238.6516
196  6026.5618
195  6453.9914
194  6184.0241
193  6073.916
192  5837.9241
191  6187.8619
190  6189.0703
189  6581.0244
188  6209.4803
187  6232.7039
186  6014.6508
185  6184.2441
184  6167.3606
183  6512.2873
182  6808.0108
181  6860.3722
180  6792.1156
179  6951.2225
178  7102.3869
177  7038.0015
176  6840.3582
175  6725.1181
174  6591.7995
173  6383.6017
172  6271.1711
171  5990.6761
170  5638.4036
169  5511.5835
168  5231.3671
167  4932.2087
166  4900.7341
165  4721.5905
164  4380.0666
163  4363.7281
162  4580.5694
161  4774.1394
160  5056.8241
159  6286.6727
158  8740.2339
157  15157.836
156  23007.256
155  22528.873
154  14470.057
153  8660.8939
152  6054.6477
151  4984.5879
150  4283.2758
149  4012.9502
148  3914.6461
147  3830.3591
146  3449.2716
145  3624.9376
144  4005.0684
143  3803.6186
142  3756.6391
141  3941.3351
140  3652.1734
139  3304.5847
138  3485.3402
137  3516.3907
136  3437.3609
135  3548.4181
134  3588.483
133  3841.2992
132  3580.0968
131  3765.9875
130  3946.4667
129  4286.2094
128  4665.5987
127  4508.6711
126  4374.7012
125  4271.8332
124  4087.0242
123  3925.1903
122  3839.0463
121  3676.3315
120  3322.4147
119  3045.7247
118  2936.7877
117  2694.823
116  2575.1424
115  2104.7408
114  1960.0091
113  1677.159
112  1652.2949
111  1553.1097
110  1408.7923
109  1630.5268
108  2285.2834
107  3813.7557
106  10764.716
105  24405.862
104  23224.921
103  10215.225
102  3732.4131
101  1764.3697
100  1266.5401
99  1113.7342
98  1097.0137
97  1011.1297
96  956.23655
95  1125.1689
94  1113.3074
93  1055.3516
92  1140.9486
91  1168.1598
90  982.39717
89  949.82188
88  990.90574
87  1070.9932
86  1044.1438
85  1002.7637
84  1043.3562
83  977.91237
82  996.4004
81  1093.1633
80  1114.871
79  1163.1269
78  1132.7751
77  1210.6947
76  1099.324
75  1156.9181
74  1216.5753
73  1099.3954
72  1055.7365
71  1152.5183
70  1232.8463
69  1039.8428
68  1022.0947
67  1076.0432
66  1200.8085
65  1149.5052
64  1224.7147
63  1159.7645
62  1058.7507
61  1217.5
60  1135.0365
59  1214.3468
58  1380.9565
57  1229.8602
56  1233.5181
55  1235.1236
54  1335.0987
53  1317.1321
52  1304.5742
51  1342.0972
50  1344.7546
49  1378.9885
48  1278.2994
47  1335.4133
46  1130.8677
45  1178.5639
44  1083.3332
43  1120.9583
42  959.31609
41  939.64594
40  940.48772
39  898.0719
38  949.6021
37  906.09956
36  900.7954
35  885.45475
34  996.18949
33  1076.0836
32  1136.5203
31  1288.1788
30  1617.6292
29  2282.8726
28  3230.3735
27  4253.5896
26  3907.8031
25  2637.749
24  1243.4059
23  618.2584
22  424.67267
21  317.61813
20  359.5171
19  316.83024
18  299.07032
17  630.84003
16  1037.5572
15  1081.0157
14  1030.8455
13  1062.0188
12  959.06025
11  840.03815
10  919.41769
9  910.21209
8  895.64734
7  684.83494
6  375.11901
5  168.01817
4  103.60136
3  32.219655
2  14.111332
1  15.455892
0  10.1208