# Region:            Survey 25 s 3k 30uA H=5
# Acquisition Date:  11/07/19 17:16:33 UTC
# Analysis Method:   XPS
# Analyzer:          Phoibos
# Analyzer Lens:     MediumArea:1.5kV
# Analyzer Slit:     4:3x20\B:open
# Scan Mode:         FixedAnalyzerTransmission
# Curves/Scan:       1
# Values/Curve:      1301
# Dwell Time:        0.1
# Excitation Energy: 1486.71
# Binding Energy:    1300
# Pass Energy:       50
# Bias Voltage:      90
# Detector Voltage:  1900
# Eff. Workfunction: 4.395
# Source:            Focus
# Comment:           
#
# Cycle: 0
# Number of Scans: 2
#
# Cycle: 0, Curve: 0
# Acquisition Date: 11/07/19 17:16:33 UTC
#
# ColumnLabels: energy counts/s
#
1300  16000.999
1299  15977.876
1298  16477.235
1297  16167.796
1296  16075.972
1295  16324.474
1294  16299.073
1293  16293.852
1292  16468.305
1291  16935.686
1290  16547.591
1289  16486.268
1288  16501.201
1287  16306.211
1286  16973.53
1285  16582.695
1284  16186.777
1283  16678.696
1282  16266.121
1281  16240.985
1280  16350.715
1279  16847.033
1278  16342.474
1277  16578.075
1276  16768.553
1275  16687.484
1274  16878.52
1273  16843.056
1272  16749.617
1271  16363.136
1270  16933.962
1269  17154.116
1268  16778.553
1267  16713.514
1266  17350.416
1265  17169.019
1264  16770.56
1263  16746.052
1262  16269.139
1261  16143.294
1260  17060.091
1259  16838.285
1258  16993.536
1257  17013.783
1256  16851.673
1255  17293.202
1254  17688.868
1253  17271.602
1252  17442.701
1251  17553.725
1250  17996.823
1249  17897.584
1248  17838.189
1247  17835.103
1246  17585.174
1245  17961.502
1244  17853.372
1243  17940.48
1242  17845.669
1241  18073.874
1240  18405.996
1239  17767.296
1238  18021.735
1237  18005.272
1236  17894.23
1235  17951.014
1234  18236.508
1233  17897.306
1232  18217.179
1231  19067.3
1230  19126.381
1229  19172.091
1228  19241.705
1227  19406.917
1226  18988.207
1225  19065.916
1224  18271.28
1223  18399.378
1222  18242.877
1221  17730.862
1220  17353.323
1219  16706.682
1218  17431.918
1217  17016.09
1216  16652.244
1215  16132.58
1214  15635.741
1213  15556.403
1212  15737.185
1211  15615.718
1210  15666.612
1209  15669.653
1208  15526.193
1207  15322.946
1206  15093.625
1205  15399.446
1204  15012.077
1203  15137.817
1202  15374.142
1201  15272.579
1200  15274.426
1199  15562.025
1198  15625.866
1197  15468.495
1196  15707.129
1195  15976.448
1194  15528.894
1193  15594.638
1192  15602.133
1191  15726.924
1190  15324.335
1189  15640.613
1188  15495.666
1187  15493.063
1186  15521.977
1185  15604.082
1184  15715.549
1183  15239.707
1182  15295.727
1181  15258.868
1180  15812.1
1179  15722.975
1178  15686.225
1177  15797.511
1176  15200.991
1175  15218.639
1174  15629.361
1173  15759.211
1172  15559.959
1171  15691.49
1170  15705.379
1169  16072.244
1168  15523.223
1167  15248.927
1166  15734.934
1165  15562.977
1164  15088.053
1163  15161.937
1162  15751.862
1161  15851.521
1160  15838.151
1159  16457.704
1158  15707.703
1157  15469.209
1156  15425.006
1155  15755.848
1154  15548.609
1153  15356.119
1152  16411.433
1151  16216.291
1150  15674.666
1149  16132.658
1148  16070.617
1147  15827.437
1146  15952.23
1145  15696.51
1144  15932.697
1143  15918.351
1142  16134.076
1141  15552.547
1140  15409.279
1139  15623.889
1138  15565.873
1137  15184.358
1136  15402.137
1135  15904.854
1134  15952.54
1133  16221.288
1132  15911.123
1131  15678.219
1130  15922.446
1129  15929.047
1128  15919.844
1127  16096.167
1126  16365.003
1125  15904.538
1124  16046.82
1123  15882.799
1122  16255.206
1121  15663.46
1120  16009.065
1119  16387.552
1118  16010.453
1117  15830.993
1116  16112.188
1115  16231.384
1114  15882.455
1113  16390.244
1112  16436.761
1111  16333.797
1110  16931.677
1109  16196.753
1108  16026.005
1107  16119.158
1106  16020.943
1105  16054.331
1104  16047.643
1103  15847.179
1102  15910.588
1101  16279.055
1100  16655.8
1099  16081.99
1098  16217.504
1097  16449.051
1096  16370.832
1095  16344.005
1094  16269.047
1093  16680.53
1092  16476.053
1091  16428.386
1090  16441.887
1089  16511.046
1088  16057.507
1087  16331.032
1086  16344.583
1085  16206.096
1084  16612.119
1083  16651.814
1082  16715.037
1081  16573.416
1080  16449.538
1079  16536.126
1078  16558.644
1077  16352.992
1076  16479.899
1075  16629.827
1074  16955.764
1073  18205.367
1072  17843.297
1071  16762.919
1070  16079.008
1069  16603.085
1068  16626.403
1067  16554.809
1066  17087.226
1065  16733.609
1064  16987.117
1063  17152.478
1062  16978.801
1061  16375.489
1060  16354.325
1059  16673.459
1058  16631.01
1057  16268.334
1056  16320.593
1055  16815.224
1054  16595.206
1053  17305.114
1052  16909.086
1051  16926.947
1050  16803.929
1049  16581.12
1048  16664.013
1047  16623.653
1046  16998.433
1045  17222.291
1044  17109.134
1043  16703.542
1042  16629.956
1041  17024.322
1040  17305.272
1039  17274.952
1038  17215.288
1037  16922.502
1036  16846.135
1035  17462.992
1034  17302.868
1033  17471.068
1032  17201.14
1031  17164.151
1030  17176.12
1029  17373.613
1028  17332.295
1027  17213.388
1026  17263.017
1025  17534.106
1024  17607.232
1023  17353.128
1022  17645.324
1021  17287.882
1020  17463.365
1019  17708.605
1018  17719.564
1017  17856.126
1016  17878.974
1015  17139.103
1014  16526.665
1013  16849.282
1012  16948.732
1011  17248.747
1010  16307.779
1009  16350.649
1008  16835.756
1007  16847.048
1006  17524.412
1005  18010.413
1004  18297.493
1003  18493.165
1002  19222.212
1001  18961.226
1000  17944.893
999  17598.781
998  16301.094
997  16658.604
996  16511.989
995  15959.155
994  15314.365
993  14770.773
992  14964.267
991  14783.402
990  14296.661
989  14447.936
988  14248.597
987  14308.168
986  14884.971
985  16111.166
984  17176.257
983  17809.375
982  19159.076
981  20853.862
980  21226.062
979  19701.291
978  17792.306
977  15941.199
976  14670.752
975  13873.923
974  12993.244
973  12312.462
972  11898.506
971  11339.285
970  10618.739
969  9906.4167
968  9472.4975
967  10018.164
966  9534.6451
965  9649.8321
964  9618.4135
963  9556.7973
962  9777.525
961  9674.9425
960  9681.8338
959  9619.8751
958  9368.7185
957  9450.7122
956  9574.7449
955  9538.5502
954  9372.6106
953  9061.681
952  9138.0155
951  9456.051
950  9598.4743
949  9517.4905
948  9438.5766
947  9693.56
946  9665.1683
945  9411.4756
944  9470.4672
943  9645.9474
942  9833.1493
941  9854.0299
940  9778.9051
939  9800.6377
938  9510.5889
937  9680.9568
936  9667.4637
935  9754.5358
934  9706.2741
933  9525.3589
932  9970.9934
931  9797.9768
930  10247.746
929  9515.0195
928  9793.3391
927  9814.4636
926  9665.6581
925  9934.2139
924  10062.309
923  10180.847
922  10268.232
921  10179.653
920  10273.493
919  10474.851
918  10197.285
917  10339.512
916  10303.869
915  10496.543
914  10044.769
913  10326.099
912  10071.474
911  10595.218
910  10412.726
909  10253.572
908  10316.072
907  10619.3
906  10070.024
905  10548.564
904  10171.814
903  10633.455
902  10875.477
901  10855.548
900  10578.129
899  10291.888
898  10794.174
897  10797.756
896  10587.001
895  10945.396
894  10722.43
893  10711.443
892  11004.68
891  10757.601
890  10820.991
889  10819.183
888  10843.067
887  10768.11
886  10870.382
885  11056.5
884  10887.868
883  10991.568
882  10793.04
881  10938.414
880  10817.376
879  10928.776
878  11027.148
877  11010.936
876  11151.871
875  11226.176
874  11119.106
873  11024.101
872  10620.069
871  11143.322
870  10887.688
869  11394.962
868  11126.286
867  11197.834
866  11579.526
865  11079.975
864  11376.693
863  11015.762
862  10951.821
861  11018.347
860  11528.446
859  11248.392
858  11432.933
857  11584.432
856  11579.593
855  11757.722
854  11387.286
853  11473.997
852  11725.714
851  11273.402
850  11508.694
849  11852.344
848  11367.751
847  11688.685
846  11686.852
845  11642.401
844  12016.538
843  11884.42
842  11866.286
841  12018.637
840  12119.835
839  12089.648
838  11573.37
837  11578.175
836  11990.214
835  11998.005
834  11858.539
833  11987.943
832  12206.485
831  12141.166
830  12186.096
829  12216.206
828  11922.298
827  11762.784
826  12000.349
825  12152.385
824  11829.552
823  12096.704
822  12062.344
821  12229.899
820  12472.013
819  12186.463
818  12194.213
817  12207.955
816  12172.974
815  12093.504
814  12646.607
813  12379.081
812  12750.942
811  12640.302
810  12582.268
809  12899.951
808  13087.503
807  12709.158
806  12569.942
805  12555.494
804  12646.762
803  12892.397
802  12504.299
801  12254.139
800  12329.8
799  12857.065
798  12703.916
797  12600.304
796  12527.584
795  12432.143
794  12523.751
793  12628.927
792  12696.245
791  12743.732
790  13291.841
789  13280.749
788  12998.383
787  12945.608
786  12844.134
785  13037.616
784  12802.832
783  13295.472
782  13067.298
781  12767.915
780  13142.499
779  13471.306
778  13337.216
777  12977.282
776  13277.018
775  13033.805
774  13290.458
773  13296.384
772  13588.54
771  13262.913
770  13681.357
769  13612.946
768  13540.72
767  13470.277
766  13395.075
765  13220.677
764  13443.93
763  13736.019
762  14102.618
761  13610.597
760  13489.043
759  13808.971
758  13599.748
757  13246.309
756  13424.498
755  13514.497
754  13955.712
753  13945.341
752  14230.58
751  14052.75
750  14001.42
749  13882.911
748  13829.31
747  13796.706
746  13898.778
745  14115.428
744  14065.547
743  13800.112
742  13724.528
741  14042.567
740  14237.84
739  14220.823
738  14045.089
737  14555.218
736  14576.674
735  14607.685
734  14401.741
733  14039.517
732  14314.846
731  14083.137
730  14410.448
729  14110.002
728  14457.431
727  14122.269
726  14387.911
725  14403.603
724  14248.692
723  14325.107
722  14595.566
721  14528.453
720  14238.317
719  14568.458
718  14231.315
717  14786.039
716  14941.573
715  14978.245
714  15095.017
713  14563.828
712  14519.583
711  14842.67
710  14676.311
709  15011.641
708  14804.119
707  14773.023
706  15184.115
705  15152.866
704  14854.143
703  15220.581
702  14682.367
701  14674.019
700  14844.068
699  14793.448
698  15021.163
697  14977.006
696  14819.801
695  14887.973
694  15062.258
693  15164.604
692  14879.895
691  14913.323
690  14918.889
689  15672.958
688  15657.387
687  15227.079
686  15287.769
685  15029.525
684  15537.767
683  15083.159
682  15643.054
681  15064.072
680  15440.309
679  15882.305
678  15443.008
677  15250.168
676  15467.294
675  15349.027
674  15436.166
673  15601.305
672  15804.967
671  15741.169
670  15701.042
669  16075.681
668  15673.489
667  15938.911
666  16055.494
665  16025.149
664  15287.134
663  16137.224
662  16013.255
661  15679.092
660  15557.89
659  15953.795
658  16254.921
657  15973.753
656  16238.931
655  16458.35
654  15650.132
653  15810.68
652  15791.679
651  15678.403
650  15890.242
649  16394.769
648  16333.444
647  16270.74
646  16335.024
645  16125.926
644  16177.82
643  16046.772
642  16911.677
641  16674.664
640  16697.682
639  16471.13
638  16396.334
637  16195.808
636  16558.857
635  16507.002
634  16479.326
633  16833.291
632  16636.624
631  16304.784
630  16384.365
629  16708.647
628  16695.077
627  16643.348
626  17052.113
625  16940.456
624  16717.808
623  16558.014
622  16606.728
621  17047.924
620  16789.365
619  16979.413
618  17115.796
617  16441.562
616  16857.092
615  16743.608
614  17002.319
613  17184.188
612  16754.438
611  17124.973
610  17008.843
609  17122.605
608  17494.758
607  17450.845
606  17439.445
605  17280.326
604  17665.243
603  17344.102
602  16949.658
601  17274.163
600  17190.588
599  17422.95
598  17159.031
597  16913.608
596  17719.472
595  17645.249
594  16983.066
593  17495.991
592  17357.538
591  17133.162
590  17470.848
589  18001
588  17878.208
587  17206.639
586  17395.889
585  18104.015
584  17811.698
583  17974.714
582  18502.828
581  17851.862
580  17679.769
579  17427.968
578  17425.136
577  17543.135
576  17882.883
575  17736.188
574  17128.503
573  17344.393
572  17288.739
571  16794.334
570  16578.69
569  16480.028
568  16049.606
567  16095.692
566  16404.27
565  16615.617
564  17009.683
563  17071.325
562  17929.228
561  18307.194
560  18821.64
559  19229.664
558  19765.087
557  20348.753
556  20844.128
555  20476.787
554  19656.658
553  18052.461
552  17074.965
551  16522.989
550  16080.181
549  15318.363
548  14080.307
547  13453.826
546  12397.95
545  11588.773
544  10289.676
543  8861.1879
542  7635.924
541  7311.4187
540  7077.4049
539  6805.1388
538  7054.9432
537  7865.5776
536  10842.905
535  25763.967
534  76419.14
533  93293.046
532  37533.287
531  11784.675
530  7508.899
529  6376.4308
528  5954.3183
527  5470.693
526  5728.26
525  5717.2097
524  5665.1338
523  5843.5237
522  5875.9427
521  5713.1289
520  5752.3549
519  5489.5317
518  5305.6299
517  5507.3706
516  5559.8148
515  5710.889
514  5416.0834
513  5775.5774
512  5840.5025
511  5475.2276
510  5590.3157
509  5517.1338
508  5674.3461
507  5692.1722
506  5480.0611
505  5652.0778
504  5424.3438
503  5521.0566
502  5566.5377
501  5333.1071
500  5815.702
499  6573.2324
498  6689.7018
497  6102.7567
496  5598.4028
495  5586.1798
494  5403.1871
493  5700.4448
492  5409.1175
491  5222.0335
490  5564.9626
489  5536.031
488  5660.7587
487  5562.6089
486  5452.5543
485  5629.241
484  5540.3237
483  5589.1442
482  5519.5608
481  5529.9058
480  5349.3229
479  5490.5648
478  5878.4978
477  5526.7699
476  5582.6579
475  5549.4158
474  5837.067
473  5675.3465
472  5529.6894
471  5731.9752
470  5770.9558
469  5599.8813
468  5693.278
467  5660.2853
466  5810.5327
465  5692.8143
464  5477.0037
463  5678.6641
462  5636.748
461  5629.7018
460  5633.9714
459  5765.569
458  5580.6409
457  5743.4112
456  5834.5333
455  5703.5068
454  5681.7157
453  5850.7562
452  5738.7667
451  5641.3723
450  5886.6101
449  5895.6285
448  6001.6702
447  5653.8236
446  5664.8024
445  6042.0125
444  5672.7426
443  5723.1638
442  5931.8327
441  5755.718
440  5994.9038
439  6033.3969
438  5797.692
437  5669.1371
436  5753.6795
435  5960.4581
434  5891.312
433  6038.9346
432  5768.3845
431  5961.9
430  5759.4616
429  5691.989
428  5662.558
427  6062.8824
426  6076.0843
425  5832.7155
424  5518.6784
423  5788.5022
422  5653.4634
421  5715.0665
420  5826.9361
419  5381.1132
418  5604.1522
417  5770.4081
416  5855.118
415  5718.6819
414  5578.0005
413  5825.9653
412  5856.8441
411  5673.6686
410  5969.2288
409  5864.4254
408  5568.8004
407  5747.1466
406  5860.9982
405  5771.9247
404  5830.0796
403  5881.7582
402  6013.3324
401  5965.9415
400  6472.0375
399  6096.4048
398  6069.2053
397  5657.6202
396  5898.0449
395  6201.6654
394  5942.3771
393  5677.7676
392  5746.9504
391  5768.1944
390  5839.5256
389  5745.5005
388  5764.4178
387  6015.4009
386  5882.0977
385  5717.3417
384  5797.4303
383  5899.7055
382  6003.133
381  6013.8379
380  5904.3224
379  5988.3878
378  6130.7451
377  6317.9173
376  6078.1401
375  5924.5151
374  5842.9808
373  5993.3382
372  6077.9237
371  5863.8943
370  5918.8221
369  5852.5317
368  5933.0949
367  6385.4008
366  6621.0221
365  5971.552
364  6111.3866
363  6090.4155
362  5894.7192
361  5852.7146
360  5861.2854
359  6007.3346
358  6192.1893
357  6010.7114
356  5970.2463
355  6030.2744
354  6249.0998
353  6148.4963
352  6317.8387
351  6148.7425
350  6419.1354
349  6575.8607
348  7009.4551
347  6603.5843
346  6469.9313
345  6223.3884
344  5945.6585
343  6165.991
342  6288.0893
341  6310.1256
340  6089.8819
339  6124.7777
338  6289.0304
337  6265.3995
336  6341.8509
335  6403.9462
334  6562.3505
333  6310.7877
332  6221.9415
331  6172.5814
330  6010.8357
329  6016.6376
328  6202.6039
327  6179.1229
326  6536.237
325  6251.2128
324  6193.3897
323  6388.3785
322  6711.3734
321  6739.5676
320  6790.7724
319  6331.7817
318  6917.44
317  6830.6949
316  6672.7267
315  6722.2511
314  6565.8506
313  6655.0212
312  6766.7123
311  6829.0974
310  6789.2381
309  6869.4392
308  6827.5386
307  6852.0516
306  6980.7336
305  6885.4641
304  6518.6192
303  6676.3077
302  6645.6233
301  6476.1154
300  6452.3668
299  6628.7595
298  6366.4482
297  6398.4052
296  6397.9901
295  6547.4916
294  6629.9321
293  6368.1099
292  6057.4163
291  6161.5135
290  6451.7233
289  7001.3396
288  7484.0061
287  9944.7555
286  18306.159
285  21266.842
284  10920.656
283  6339.2617
282  5771.8577
281  5838.8703
280  5833.6592
279  5510.6426
278  5500.1248
277  5708.8644
276  5699.4752
275  5533.4962
274  5409.5256
273  5640.4674
272  5683.7939
271  5837.4245
270  5879.9504
269  5671.9289
268  5705.8584
267  5513.3143
266  5416.0498
265  5815.4157
264  5632.9144
263  5541.9337
262  5381.4226
261  5342.6968
260  5573.7734
259  5534.2665
258  5558.0238
257  5414.2721
256  5546.2648
255  5569.7447
254  5474.7196
253  5486.7389
252  5488.9411
251  5592.1626
250  5618.0912
249  5523.9902
248  5666.6083
247  5614.6481
246  5583.739
245  5698.9254
244  5562.5314
243  5760.118
242  5811.786
241  5646.9652
240  5634.4162
239  5528.0079
238  5717.0951
237  5572.3307
236  5523.5886
235  5583.5403
234  5885.5973
233  5807.3948
232  5656.2287
231  5661.8225
230  5529.9452
229  5745.0616
228  5593.3135
227  5750.7323
226  5544.414
225  5653.2418
224  5275.5712
223  5453.1164
222  5855.8276
221  5863.661
220  5676.9587
219  5897.2352
218  5777.2876
217  5800.571
216  5624.0517
215  5579.6001
214  5518.0197
213  5803.8761
212  5757.8462
211  5810.1919
210  5690.2023
209  5827.3286
208  5668.5808
207  5990.4888
206  5949.1204
205  5648.8834
204  5972.4563
203  5989.3634
202  5658.6594
201  5981.1368
200  6177.2028
199  6388.3904
198  6001.0301
197  5683.0167
196  5629.6768
195  5905.847
194  5849.8396
193  5729.0516
192  6078.4384
191  5731.243
190  5782.3264
189  5988.0933
188  5878.4521
187  5745.6372
186  5632.7775
185  6063.51
184  6073.0041
183  6005.9819
182  5886.2284
181  6253.4903
180  6435.0265
179  6700.9984
178  6686.9008
177  6666.4014
176  6842.43
175  6775.553
174  6397.395
173  6421.8371
172  6049.4179
171  6001.0216
170  5657.3596
169  5227.4564
168  4990.8817
167  5051.7246
166  4558.9927
165  4511.361
164  4179.1423
163  4011.9343
162  3808.217
161  3860.6315
160  4121.3764
159  4473.4972
158  5853.4604
157  8890.821
156  15711.197
155  20820.605
154  15893.844
153  9664.7087
152  6173.3466
151  4999.1902
150  4400.2204
149  3977.6251
148  3951.2631
147  3569.0113
146  3589.8057
145  3727.7315
144  3787.583
143  3531.2922
142  3576.7274
141  3424.9607
140  3365.8619
139  3418.2374
138  3375.6992
137  3397.4859
136  3492.7395
135  3293.1976
134  3241.3536
133  3449.9614
132  3556.4706
131  3711.0221
130  3592.1878
129  4109.9143
128  4189.9243
127  4154.4607
126  4223.0979
125  4160.9498
124  4206.6906
123  4120.5411
122  3783.8649
121  3382.6721
120  3205.4379
119  3112.0436
118  3001.2876
117  2609.0785
116  2468.4064
115  2163.8698
114  1752.4949
113  1490.2542
112  1491.4897
111  1232.8889
110  1102.0187
109  1357.9603
108  1329.231
107  1823.1144
106  4029.1998
105  14723.554
104  23048.511
103  13740.335
102  5457.7616
101  1964.8691
100  1284.712
99  1124.7777
98  1082.4684
97  935.07913
96  935.70102
95  1073.3535
94  1067.9946
93  1024.0401
92  900.65315
91  895.41439
90  974.21104
89  1049.6124
88  1090.681
87  1000.7536
86  886.79485
85  1043.5666
84  1133.3745
83  1021.8165
82  1060.6127
81  995.324
80  1062.3738
79  1101.3566
78  1133.5928
77  1123.2951
76  971.85456
75  1150.4736
74  1166.0685
73  1080.4761
72  1022.9605
71  1048.8325
70  1071.7802
69  1115.5408
68  1167.9434
67  1146.1038
66  1048.551
65  1038.1232
64  1202.4576
63  1098.6875
62  1190.8594
61  1113.7717
60  1133.0673
59  1217.9749
58  1109.2677
57  1106.715
56  1107.5277
55  1144.9766
54  1191.1818
53  1158.8529
52  1197.0265
51  1312.8604
50  1388.6031
49  1467.3056
48  1343.0695
47  1259.5899
46  1242.9732
45  1261.0768
44  1078.1324
43  1065.6573
42  1029.3736
41  963.56896
40  922.30119
39  863.12791
38  973.54912
37  908.08872
36  903.03131
35  862.55051
34  862.88884
33  961.11296
32  979.34607
31  1079.0734
30  1200.3233
29  1396.2066
28  2045.1985
27  3472.2119
26  3793.6265
25  2964.5338
24  1406.1615
23  687.95781
22  433.21518
21  345.41807
20  410.76054
19  358.36757
18  391.79774
17  498.42187
16  898.33006
15  876.70351
14  957.14462
13  962.37942
12  788.97246
11  639.39873
10  748.47514
9  948.33356
8  869.27848
7  783.13888
6  470.78774
5  172.44442
4  70.888365
3  21.704325
2  14.995825
1  8.76755
0  8.5206