# Region:            Survey 40 s 3k 36uA H=0
# Acquisition Date:  11/07/19 17:35:59 UTC
# Analysis Method:   XPS
# Analyzer:          Phoibos
# Analyzer Lens:     MediumArea:1.5kV
# Analyzer Slit:     4:3x20\B:open
# Scan Mode:         FixedAnalyzerTransmission
# Curves/Scan:       1
# Values/Curve:      1301
# Dwell Time:        0.1
# Excitation Energy: 1486.71
# Binding Energy:    1300
# Pass Energy:       50
# Bias Voltage:      90
# Detector Voltage:  1900
# Eff. Workfunction: 4.395
# Source:            Focus
# Comment:           
#
# Cycle: 0
# Number of Scans: 2
#
# Cycle: 0, Curve: 0
# Acquisition Date: 11/07/19 17:35:59 UTC
#
# ColumnLabels: energy counts/s
#
1300  16511.252
1299  15915.076
1298  16363.065
1297  16561.642
1296  16209.333
1295  15923.658
1294  16104.34
1293  16324.595
1292  16407.055
1291  16533.583
1290  16450.657
1289  16452.25
1288  16132.004
1287  16287.842
1286  16723.969
1285  16615.081
1284  16738.66
1283  16675.437
1282  16459.196
1281  16628.993
1280  16421.795
1279  16202.269
1278  16599.268
1277  16432.279
1276  17010.766
1275  17177.675
1274  16833.594
1273  16802.952
1272  16718.413
1271  16125.931
1270  17158.711
1269  16951.024
1268  16458.415
1267  16692.882
1266  16490.606
1265  17134.785
1264  16849.997
1263  17119.442
1262  16824.018
1261  16839.865
1260  16686.753
1259  17135.598
1258  16609.858
1257  17335.291
1256  17107.67
1255  17092.112
1254  17244.768
1253  17818.19
1252  17569.645
1251  17444.998
1250  17008.516
1249  17665.788
1248  17822.907
1247  17654.228
1246  17807.214
1245  18032.617
1244  17603.012
1243  17845.186
1242  17729.34
1241  17878.284
1240  18277.171
1239  18185.824
1238  17873.137
1237  17948.421
1236  17853.061
1235  18008.319
1234  18217.516
1233  17784.337
1232  18401.847
1231  18860.092
1230  18515.635
1229  18564.155
1228  19255.561
1227  19291.586
1226  18623.378
1225  18077.689
1224  18781.042
1223  18926.815
1222  18467.056
1221  17494.079
1220  18057.921
1219  18111.765
1218  17705.251
1217  17068.706
1216  17041.993
1215  16413.616
1214  16118.43
1213  16118.722
1212  16298.106
1211  15637.372
1210  15927.033
1209  15887.537
1208  15661.59
1207  15566.485
1206  15342.93
1205  15635.281
1204  16265.809
1203  16230.625
1202  15616.092
1201  15595.509
1200  16017.919
1199  16065.247
1198  16001.942
1197  15418.169
1196  15710.814
1195  16123.075
1194  16369.404
1193  16262.714
1192  15958.041
1191  16169.756
1190  15716.389
1189  15517.044
1188  15488.245
1187  15699.101
1186  15506.142
1185  15556.034
1184  16208.011
1183  16037.773
1182  16217.873
1181  15313.064
1180  15420.589
1179  15983.492
1178  15729.627
1177  15781.094
1176  15992.641
1175  15772.703
1174  15686.292
1173  15267.129
1172  15905.523
1171  15434.608
1170  15755.789
1169  16067.606
1168  15822.521
1167  16177.821
1166  15491.418
1165  15057.594
1164  15632.098
1163  15662.868
1162  15556.459
1161  15766.711
1160  15735.696
1159  16014.786
1158  15946.843
1157  16049.458
1156  16150.762
1155  16044.57
1154  15874.751
1153  15707.875
1152  15735.893
1151  15500.893
1150  15757.894
1149  16296.636
1148  16245.078
1147  16359.517
1146  16245.731
1145  15879.454
1144  15791.952
1143  16232.213
1142  15456.133
1141  15347.55
1140  16143.592
1139  15878.59
1138  15781.079
1137  15696.893
1136  15966.946
1135  16006.426
1134  15933.454
1133  16207.851
1132  15911.128
1131  16065.643
1130  16296.3
1129  16189.596
1128  16275.018
1127  16235.475
1126  16450.383
1125  16168.857
1124  16458.177
1123  15867.009
1122  15668.416
1121  16364.233
1120  16701.831
1119  16364.638
1118  15878.408
1117  16019.06
1116  16266.406
1115  16374.492
1114  16200.036
1113  16126.567
1112  15856.027
1111  16215.846
1110  16288.244
1109  16545.914
1108  16294.335
1107  16578.831
1106  16256.395
1105  16238.781
1104  15988.531
1103  16242.064
1102  16256.644
1101  16794.014
1100  16203.857
1099  16827.705
1098  16195.979
1097  16321.794
1096  16614.678
1095  16386.059
1094  16644.943
1093  16022.326
1092  16519.683
1091  16704.51
1090  16504.922
1089  16117.915
1088  16509.343
1087  16541.512
1086  16215.559
1085  16263.572
1084  16964.764
1083  16489.543
1082  16846.251
1081  16607.358
1080  16620.77
1079  16591.077
1078  15993.67
1077  16723.384
1076  16858.3
1075  16838.276
1074  17787.412
1073  18192.774
1072  17764.567
1071  16948.712
1070  16855.954
1069  17182.502
1068  16897.971
1067  16745.986
1066  16683.79
1065  17060.513
1064  16539.135
1063  16623.905
1062  16772.098
1061  16497.351
1060  16938.849
1059  17437.345
1058  17107.217
1057  16952.226
1056  16834.697
1055  17089.817
1054  16868.78
1053  16832.973
1052  17051.998
1051  17005.72
1050  17239.418
1049  17047.994
1048  17437.024
1047  17050.408
1046  17192.666
1045  17327.594
1044  17647.255
1043  17373.491
1042  17394.132
1041  16587.878
1040  17230.704
1039  17072.582
1038  17574.413
1037  17102.539
1036  17410.638
1035  17550.816
1034  17248.534
1033  17174.153
1032  17206.059
1031  17419.498
1030  17030.045
1029  17437
1028  17593.742
1027  17998.99
1026  18113.627
1025  18111.5
1024  17929.611
1023  17574.505
1022  17750.043
1021  18375.406
1020  18090.066
1019  17974.875
1018  17758.734
1017  17886.413
1016  18154.683
1015  17284.528
1014  17399.508
1013  17470.259
1012  17148.396
1011  17228.416
1010  17545.886
1009  17873.941
1008  17644.088
1007  18043.869
1006  18162.988
1005  18878.756
1004  18809.707
1003  18937.924
1002  19026.063
1001  19061.496
1000  19184.837
999  18195.953
998  17975.278
997  17189.94
996  16633.479
995  16127.594
994  16141.224
993  15893.641
992  15527.345
991  15392.857
990  15363.29
989  15558.131
988  15594.492
987  15453.357
986  15474.498
985  16989.185
984  18369.148
983  19749.07
982  21577.877
981  22152.318
980  22075.863
979  20646.695
978  18644.222
977  16951.141
976  15990.145
975  14355.509
974  13703.851
973  13200.106
972  12417.317
971  11864.783
970  10765.795
969  10303.913
968  10238.926
967  9706.9986
966  9411.3792
965  9565.4497
964  9514.8433
963  9792.6528
962  9904.2017
961  9425.9993
960  9319.6466
959  9502.8168
958  9872.5044
957  9462.8443
956  9823.0196
955  9869.3109
954  9598.301
953  9267.0489
952  9698.5898
951  9942.4924
950  9614.6372
949  9675.7348
948  9541.2975
947  9675.8415
946  9780.7151
945  10027.952
944  9928.6085
943  9752.3326
942  9672.9816
941  9944.4103
940  9859.4827
939  9730.8911
938  9871.7793
937  9850.7826
936  9558.8821
935  9847.794
934  10192.366
933  10045.921
932  10184.233
931  10169.723
930  9884.4005
929  10070.97
928  10259.532
927  10333.549
926  10208.008
925  10060.283
924  10525.615
923  10033.144
922  10072.953
921  9963.0719
920  10191.823
919  10150.327
918  10342.123
917  10238.455
916  10327.959
915  10091.005
914  10127.461
913  9946.6889
912  10199.205
911  10188.941
910  10143.326
909  10232.895
908  10371.492
907  10544.462
906  10609.592
905  10660.669
904  10380.878
903  10452.001
902  10627.831
901  10451.996
900  10444.49
899  10643.432
898  10360.423
897  10358.851
896  10391.198
895  10957.134
894  10581.336
893  10240.504
892  10467.974
891  10823.188
890  11045.505
889  10675.394
888  10918.97
887  11040.774
886  10945.522
885  10724.583
884  10897.806
883  10771.54
882  10929.19
881  10890.464
880  10496.998
879  10383.687
878  10674.712
877  10659.92
876  10708.009
875  10927.53
874  10845.649
873  10627.623
872  11045.656
871  10959.452
870  11068.495
869  11077.057
868  11240.836
867  11509.552
866  10932.903
865  11011.599
864  10892.22
863  11491.831
862  10861.477
861  11034.693
860  11483.607
859  11255.494
858  11267.157
857  11416.305
856  11643.668
855  11377.484
854  11433.703
853  11568.792
852  11377.622
851  11072.942
850  11280.212
849  11144.141
848  11342.844
847  11651.557
846  11615.895
845  11268.137
844  11618.936
843  11211.326
842  11779.485
841  11900.692
840  11933.596
839  11838.879
838  11665.041
837  12225.72
836  12048.436
835  12241.706
834  12096.019
833  12234.075
832  12395.22
831  12314.155
830  12136.541
829  12068.413
828  11712.886
827  12005.235
826  12128.959
825  12360.837
824  12544.76
823  11981.531
822  12069.216
821  12577.227
820  12296.36
819  12354.565
818  12663.374
817  12790.579
816  12190.698
815  12979.204
814  12956.156
813  12236.84
812  12505.468
811  12861.526
810  12964.874
809  12680.29
808  12961.247
807  12574.674
806  12880.426
805  12987.164
804  13029.657
803  12588.547
802  12845.314
801  12936.209
800  12921.651
799  12604.211
798  12551.507
797  13077.654
796  13395.06
795  13062.839
794  13200.785
793  12679.435
792  12683.962
791  13287.744
790  13713.497
789  13369.434
788  13056.236
787  13040.708
786  12846.24
785  13116.748
784  13144.501
783  13739.014
782  13143.37
781  13401.794
780  13794.304
779  13378.465
778  13197.273
777  13502.251
776  13198.632
775  13399.129
774  13328.846
773  13410.17
772  13237.687
771  13118.724
770  13397.594
769  12799.358
768  13377.951
767  13857.505
766  13689.582
765  13371.141
764  13791.278
763  13850.313
762  13783.823
761  13965.832
760  13865.72
759  13819.162
758  13779.818
757  13252.46
756  13718.042
755  13697.099
754  14195.896
753  14302.976
752  14344.582
751  14196.212
750  13815.824
749  14255.622
748  13954.902
747  14162.867
746  14632.576
745  13827.657
744  13606.413
743  13770.252
742  13838.308
741  13989.203
740  14203.486
739  14024.209
738  14298.325
737  14184.757
736  14046.393
735  14407.917
734  14383.802
733  14334.357
732  14084.219
731  14162.033
730  14508.082
729  14988.663
728  14493.988
727  14664.79
726  14833.86
725  14611.638
724  14380.703
723  14948.415
722  14980.215
721  15339.192
720  14863.847
719  14977.406
718  14892.783
717  14532.824
716  14356.414
715  14739.189
714  14567.64
713  14935.45
712  14930.641
711  14860.714
710  14745.506
709  14882.844
708  15102.405
707  14513.029
706  15439.384
705  15315.541
704  15163.073
703  15007.975
702  15217.172
701  15172.979
700  14725.796
699  15112.21
698  14996.367
697  14986.136
696  14859.344
695  15118.304
694  15257.765
693  15173.201
692  15401.676
691  15167.74
690  15553.685
689  15614.933
688  15376.594
687  15198.319
686  15355.627
685  15248.489
684  15233.84
683  15773.802
682  15365.443
681  15384.952
680  15601.882
679  15491.367
678  16022.869
677  15706.179
676  15942.05
675  15766.861
674  15764.44
673  15515.716
672  15914.178
671  15785.847
670  15996.867
669  16091.997
668  15895.781
667  15557.225
666  15469.666
665  15846.599
664  16004.037
663  15313.886
662  15386.891
661  15946.283
660  15902.276
659  15854.778
658  16284.476
657  16515.896
656  16333.753
655  16118.75
654  16246.821
653  16568.33
652  16302.977
651  16027.544
650  16574.816
649  16403.643
648  16372.839
647  16442.159
646  16717.9
645  16322.358
644  16139.312
643  16192.964
642  16499.042
641  16681.689
640  16431.259
639  16575.427
638  16479.176
637  16659.775
636  16920.93
635  16651.942
634  16538.686
633  16644.289
632  17031.466
631  16571.846
630  16780.001
629  17482.589
628  16964.505
627  16453.445
626  17072.14
625  16670.407
624  16603.116
623  16551.895
622  17052.243
621  17510.485
620  17471.293
619  17468.433
618  16709.512
617  16977.387
616  17233.41
615  17342.277
614  17262.57
613  17152.223
612  17423.367
611  17538.253
610  17183.289
609  17111.281
608  17263.572
607  17583.83
606  17647.886
605  17458.175
604  17602.886
603  17574.069
602  17882.352
601  17419.989
600  17593.491
599  17716.718
598  17395.295
597  17251.557
596  17885.658
595  17717.563
594  17596.001
593  17985.935
592  17827.365
591  17920.022
590  18428.127
589  17822.75
588  17799.55
587  17857.473
586  17830.17
585  18314.856
584  18159.611
583  18395.533
582  18076.323
581  18601.699
580  18376.445
579  18730.002
578  17914.901
577  17921.727
576  18097.181
575  18062.11
574  18178.8
573  17731.131
572  17305.23
571  17151.298
570  16905.224
569  16422.948
568  16618.582
567  16182.342
566  16647.012
565  16917.217
564  17700.178
563  18138.544
562  18375.254
561  19176.562
560  19289.493
559  20061.233
558  20497.943
557  21260.605
556  20871.001
555  20961.75
554  20123.302
553  19212.97
552  17606.484
551  16927.902
550  15844.729
549  15291.778
548  14774.326
547  13595.844
546  12731.465
545  11824.337
544  10056.037
543  8939.7117
542  8145.7445
541  7659.633
540  7421.711
539  7195.2701
538  7465.0959
537  8830.6403
536  12624.367
535  30500.996
534  83534.879
533  97075.962
532  38164.255
531  11931.571
530  7601.3521
529  6358.8677
528  5999.007
527  5782.141
526  5981.8904
525  5994.0009
524  5836.7032
523  5739.25
522  5757.7742
521  6044.5429
520  6008.9041
519  5632.4522
518  5626.8156
517  5687.7408
516  5423.8078
515  5548.1531
514  5644.5077
513  5608.881
512  5916.9539
511  5788.8408
510  5969.0502
509  5717.2005
508  5729.4304
507  5743.7435
506  5711.6451
505  5826.2535
504  5975.7246
503  6013.6478
502  5857.8809
501  5826.4089
500  6278.0657
499  6399.4854
498  6599.9852
497  6501.6408
496  5795.9413
495  5917.1322
494  5561.0988
493  5735.5574
492  5509.5615
491  5433.5177
490  5295.3226
489  5681.5919
488  5601.8312
487  5694.3297
486  5768.179
485  5655.9521
484  5688.1892
483  5623.7664
482  5617.2589
481  5882.7272
480  5636.055
479  5434.9239
478  5671.6257
477  5409.2416
476  5705.9939
475  5674.7132
474  5609.1735
473  5520.672
472  5547.1903
471  5425.7365
470  5294.853
469  5324.5793
468  5734.2425
467  5911.0054
466  5746.8921
465  5741.4796
464  5928.2121
463  5777.8368
462  5810.9541
461  5713.0578
460  5454.817
459  5827.958
458  5787.906
457  5821.1613
456  6018.3644
455  5687.6916
454  5509.477
453  5510.2583
452  5477.6805
451  6134.4523
450  5812.3143
449  5833.1736
448  5859.9512
447  5582.3074
446  5673.6209
445  5858.8964
444  6000.716
443  5841.1358
442  5923.8542
441  5784.2284
440  6011.8528
439  6089.6135
438  6050.8512
437  5699.9553
436  5666.6509
435  5787.1403
434  6036.1139
433  6014.5939
432  5635.0362
431  5977.8515
430  5661.9485
429  5727.4488
428  5866.9265
427  5550.5259
426  5828.1636
425  5883.1098
424  5625.8723
423  5484.2574
422  5555.0004
421  5835.1373
420  5620.2292
419  5938.3815
418  5899.8694
417  6073.8457
416  6014.7828
415  6102.0006
414  6044.5642
413  6059.4788
412  5899.6816
411  5591.114
410  5916.9051
409  5919.0945
408  6265.1925
407  5963.1419
406  5856.5209
405  5941.8474
404  5927.2743
403  5889.11
402  5939.6105
401  5932.4326
400  6293.4047
399  6120.3595
398  5995.7066
397  5743.0541
396  6032.1174
395  6073.0438
394  5871.1638
393  5857.6994
392  6080.3497
391  5936.3938
390  5879.2109
389  5991.5867
388  5932.3268
387  5728.3665
386  5890.2242
385  5827.334
384  6069.8829
383  5690.1552
382  5828.8449
381  6259.4628
380  5811.789
379  5931.7535
378  5730.6536
377  5996.7946
376  6111.9265
375  6173.735
374  6061.4555
373  5910.3201
372  5882.2193
371  6257.9639
370  6000.294
369  5998.5096
368  5857.1747
367  5966.8924
366  5658.5034
365  6158.2844
364  6197.2173
363  6298.057
362  6158.4182
361  6255.2157
360  6518.4682
359  6342.7631
358  6481.4143
357  6239.5318
356  6395.8869
355  6491.9297
354  6417.1898
353  6170.3858
352  6572.0032
351  6161.1397
350  6048.8486
349  6507.5405
348  6734.7986
347  6415.2995
346  5858.9705
345  6271.4837
344  6236.4979
343  6349.0403
342  6242.7653
341  6312.7541
340  6015.4422
339  6276.1289
338  6252.2032
337  5890.8995
336  5818.5958
335  6207.8959
334  6288.1559
333  6119.5612
332  6358.3074
331  6802.4425
330  6105.0487
329  6653.0103
328  6395.3576
327  6375.6685
326  6263.793
325  6195.6644
324  6513.7393
323  6709.772
322  6313.6953
321  6457.4903
320  6516.1135
319  6693.3997
318  6744.0182
317  6648.9958
316  6614.4494
315  6819.2424
314  6750.4384
313  6672.4557
312  6720.4531
311  6438.5465
310  6402.3816
309  6712.8952
308  6631.3739
307  6832.5596
306  6772.1121
305  6871.7414
304  6539.0606
303  6287.3806
302  6167.1567
301  6281.9993
300  6474.1913
299  6699.7546
298  6234.1266
297  6520.501
296  6485.5503
295  6711.5442
294  6751.3815
293  6283.9695
292  6150.2222
291  6208.3798
290  6443.6426
289  6744.1987
288  7660.9839
287  9800.9475
286  16282.927
285  19247.881
284  10902.198
283  6479.976
282  5527.2808
281  5675.7538
280  5971.9473
279  6076.0844
278  5811.2903
277  5833.9313
276  5722.0152
275  5754.9882
274  5630.7279
273  5407.409
272  5454.6087
271  5579.9896
270  5708.4749
269  5633.2328
268  5613.6912
267  5861.9307
266  5840.9619
265  5825.0996
264  5881.6019
263  5664.6681
262  5488.3036
261  5441.6487
260  5215.746
259  5400.1966
258  5637.2273
257  5728.2137
256  5419.3541
255  5547.9975
254  5631.9677
253  5558.8923
252  5430.7033
251  5775.3117
250  6013.3854
249  5977.8937
248  5716.9948
247  5634.6389
246  5705.9781
245  5803.3216
244  5993.2605
243  6144.7056
242  5666.7839
241  5640.8792
240  5588.9555
239  5571.8921
238  5653.7719
237  5683.573
236  5691.1145
235  5657.6052
234  5625.6696
233  5887.9298
232  5903.0652
231  6032.2989
230  5820.0175
229  5866.7187
228  6023.4412
227  5524.8932
226  5640.7915
225  5774.737
224  5617.3302
223  5490.332
222  5596.5624
221  5822.4515
220  5590.256
219  5486.0377
218  5595.4628
217  5691.0385
216  5669.2101
215  5909.1808
214  5565.3791
213  5960.6526
212  6113.0397
211  5930.0883
210  5717.5222
209  5861.3351
208  6061.501
207  5926.2863
206  5778.0892
205  5618.7916
204  5829.478
203  5951.7971
202  6048.8619
201  5991.4317
200  5979.11
199  6006.1786
198  5813.583
197  5879.518
196  6024.5528
195  5744.2109
194  5799.8098
193  5941.1965
192  5797.4519
191  5908.4182
190  5789.5614
189  6080.8501
188  6060.4617
187  5780.8726
186  5697.8997
185  6056.1105
184  6093.7561
183  6125.2401
182  6403.9239
181  6877.7363
180  6737.0613
179  6833.109
178  6684.1359
177  6949.0857
176  6776.068
175  6796.672
174  6698.3738
173  6395.2392
172  6249.9351
171  6249.2129
170  5828.5764
169  5754.7392
168  5251.6194
167  5021.5824
166  4780.8571
165  4734.9769
164  4510.4084
163  4334.1978
162  4148.0499
161  4125.9196
160  4086.9736
159  4836.7025
158  6122.2748
157  9593.6467
156  16622.599
155  21792.448
154  16845.739
153  10028.449
152  6530.1344
151  4986.3748
150  4279.945
149  3927.5098
148  4099.2515
147  3798.6019
146  3711.2161
145  3892.3
144  3791.9282
143  3750.9857
142  3251.3388
141  3429.515
140  3310.1695
139  3345.7499
138  3319.8551
137  3438.516
136  3476.1371
135  3356.7549
134  3593.4736
133  3585.3006
132  3734.4243
131  3781.1139
130  3907.1005
129  3937.8669
128  4392.0159
127  4337.5066
126  4327.6588
125  4322.4275
124  4278.3567
123  3893.6429
122  3672.6773
121  3492.1202
120  3235.2654
119  3246.7865
118  2720.0942
117  2584.5313
116  2570.1029
115  2120.5708
114  1729.6333
113  1525.0426
112  1431.0878
111  1259.2092
110  1290.9959
109  1295.1633
108  1389.5259
107  2072.374
106  5005.2253
105  16006.641
104  24002.435
103  13805.324
102  5290.6245
101  1890.3301
100  1224.0763
99  1070.9999
98  1135.4949
97  1128.3927
96  1001.0987
95  1068.7599
94  1035.2341
93  1033.3425
92  1010.0496
91  1081.6201
90  1151.2273
89  1017.3457
88  980.964
87  1033.901
86  1003.528
85  1016.2258
84  1064.5594
83  1035.6095
82  1028.4213
81  1055.3865
80  1095.981
79  1208.0768
78  1125.2355
77  966.68332
76  1090.5105
75  1003.2832
74  1064.4664
73  1056.8384
72  1080.2304
71  1108.9118
70  1129.04
69  1068.4092
68  993.68509
67  992.15214
66  1101.726
65  1091.4364
64  1266.0514
63  1169.0944
62  1181.0243
61  1211.9305
60  1125.7732
59  1087.9449
58  1128.3329
57  1092.8624
56  1210.5307
55  1202.9027
54  1248.5993
53  1170.5742
52  1204.8416
51  1262.373
50  1371.953
49  1353.1273
48  1166.8527
47  1145.1148
46  1200.1329
45  1113.6633
44  1057.848
43  1049.4574
42  1102.437
41  946.33378
40  892.2421
39  891.1501
38  856.65621
37  885.23509
36  813.8542
35  836.66632
34  947.74792
33  883.88506
32  981.46633
31  1151.2979
30  1117.3469
29  1641.5516
28  2527.5382
27  3438.3114
26  3900.7983
25  3158.1809
24  1554.1013
23  803.04932
22  510.89879
21  361.29411
20  363.18459
19  339.93798
18  353.55319
17  479.0857
16  816.702
15  968.33424
14  916.12458
13  986.38521
12  935.38023
11  854.69276
10  878.19371
9  973.19323
8  886.81495
7  812.5012
6  473.58824
5  184.13349
4  103.99914
3  50.44134
2  8.106225
1  33.460051
0  11.029649