# Region:            Survey 40 s 3k 38uA H=5
# Acquisition Date:  11/07/19 17:26:36 UTC
# Analysis Method:   XPS
# Analyzer:          Phoibos
# Analyzer Lens:     MediumArea:1.5kV
# Analyzer Slit:     4:3x20\B:open
# Scan Mode:         FixedAnalyzerTransmission
# Curves/Scan:       1
# Values/Curve:      1301
# Dwell Time:        0.1
# Excitation Energy: 1486.71
# Binding Energy:    1300
# Pass Energy:       50
# Bias Voltage:      90
# Detector Voltage:  1900
# Eff. Workfunction: 4.395
# Source:            Focus
# Comment:           
#
# Cycle: 0
# Number of Scans: 2
#
# Cycle: 0, Curve: 0
# Acquisition Date: 11/07/19 17:26:36 UTC
#
# ColumnLabels: energy counts/s
#
1300  16462.126
1299  16695.759
1298  16769.425
1297  16457.77
1296  16855.556
1295  16805.56
1294  16064.793
1293  16247.883
1292  16164.032
1291  16635.302
1290  16487.677
1289  16509.261
1288  16122.788
1287  16132.318
1286  16752.339
1285  16726.359
1284  15948.443
1283  16360.058
1282  16537.794
1281  16676
1280  16503.921
1279  16289.758
1278  16606.904
1277  16924.43
1276  16736.623
1275  16704.899
1274  16763.797
1273  16953.97
1272  17272.344
1271  16677.972
1270  16667.139
1269  16953.025
1268  16678.752
1267  17136.935
1266  17554.564
1265  17109.955
1264  16623.393
1263  17064.19
1262  16456.303
1261  16730.616
1260  17017.584
1259  17187.941
1258  16703.663
1257  16861.037
1256  17139.696
1255  17296.681
1254  17785.557
1253  17218.731
1252  17412.818
1251  17049.376
1250  17351.506
1249  17644.928
1248  18150.88
1247  18075.387
1246  17783.64
1245  17826.995
1244  17479.367
1243  17397.698
1242  17934.287
1241  18254.271
1240  18098.427
1239  17554.314
1238  18489.552
1237  18026.196
1236  18064.21
1235  17796.502
1234  17832.208
1233  18180.064
1232  18861.458
1231  18954.525
1230  18758.046
1229  18771.461
1228  19156.146
1227  18769.197
1226  18885.409
1225  19143.656
1224  18918.431
1223  18717.715
1222  18399.874
1221  18088.484
1220  18242.977
1219  17617.998
1218  17101.318
1217  16825.898
1216  16484.237
1215  16546.067
1214  16315.272
1213  15979.899
1212  15675.796
1211  16136.319
1210  15683.19
1209  15415.051
1208  15497.453
1207  15949.843
1206  15735.123
1205  16135.413
1204  15726.251
1203  15865.833
1202  15739.496
1201  15910.514
1200  16138.053
1199  15618.289
1198  15372.073
1197  15910.614
1196  16055.01
1195  15978.53
1194  16150.478
1193  15733.624
1192  15237.249
1191  15107.274
1190  15534.44
1189  15559.307
1188  15804.505
1187  15777.81
1186  15879.109
1185  15690.905
1184  16015.909
1183  15990.793
1182  15523.335
1181  15654.682
1180  15891.458
1179  15499.93
1178  15531.819
1177  15799.771
1176  16088.975
1175  15419.682
1174  15178.191
1173  15253.953
1172  15959.923
1171  15117.588
1170  15429.794
1169  15587.423
1168  15601.67
1167  16152.93
1166  16139.268
1165  15564.446
1164  15231.047
1163  15189.576
1162  14900.131
1161  15526.897
1160  15269.476
1159  15652.522
1158  15955.855
1157  15390.058
1156  15704.429
1155  15827.014
1154  15931.07
1153  15999.18
1152  16523.995
1151  15895.5
1150  15290.352
1149  14963.942
1148  15713.043
1147  16109.445
1146  15801.102
1145  15893.025
1144  15912.646
1143  15758.413
1142  16265.635
1141  16016.596
1140  16027.292
1139  16213.151
1138  16127.375
1137  15811.174
1136  15785.675
1135  15678.284
1134  16318.508
1133  16164.203
1132  16394.313
1131  16066.721
1130  15706.302
1129  16460.531
1128  16122.854
1127  15976.528
1126  16359.114
1125  16102.609
1124  15626.131
1123  15868.198
1122  16423.6
1121  16436.244
1120  16287.115
1119  16588.878
1118  16269.442
1117  16339.6
1116  16657.011
1115  15974.637
1114  15775.674
1113  16308.756
1112  16215.044
1111  16738.235
1110  16107.765
1109  16347.569
1108  16022.811
1107  15397.181
1106  16040.683
1105  16377.544
1104  16185.242
1103  16129.409
1102  16086.168
1101  16019.04
1100  16664.322
1099  16781.961
1098  16301.608
1097  16597.886
1096  16580.745
1095  16125.171
1094  15742.931
1093  16424.762
1092  16728.046
1091  16012.901
1090  16145.565
1089  16894.448
1088  16580.098
1087  16790.763
1086  16694.913
1085  16325.42
1084  16294.493
1083  16710.432
1082  16820.421
1081  16448.1
1080  16162.603
1079  16382.664
1078  16395.895
1077  16455.922
1076  16807.466
1075  16525.814
1074  17418.786
1073  18378.761
1072  18007.528
1071  16920.702
1070  16686.65
1069  16418.496
1068  16996.815
1067  16404.342
1066  16809.519
1065  16973.477
1064  16744.05
1063  16840.072
1062  16893.863
1061  16900.518
1060  17053.881
1059  17043.824
1058  16759.565
1057  16573.613
1056  16944.05
1055  16913.753
1054  16886.311
1053  16746.924
1052  16932.883
1051  17164.923
1050  17060.596
1049  16901.569
1048  16860.642
1047  17428.597
1046  17406.89
1045  17635.08
1044  17263.996
1043  17108.476
1042  17389.421
1041  17409.888
1040  17471.435
1039  16877.208
1038  17440.93
1037  17337.41
1036  16902.025
1035  17112.919
1034  17823.192
1033  17671.178
1032  16649.832
1031  17375.164
1030  17867.9
1029  17061.435
1028  17409.724
1027  17562.072
1026  17688.062
1025  17754.58
1024  17426.159
1023  17640.363
1022  17815.941
1021  17844.891
1020  17179.867
1019  17557.6
1018  17866.135
1017  17820.845
1016  17667.918
1015  17384.087
1014  17264.019
1013  17780.9
1012  16930.936
1011  17068.086
1010  16873.448
1009  17705.654
1008  17922.861
1007  18138.763
1006  18493.694
1005  18888.41
1004  18417.093
1003  19062.871
1002  19174.746
1001  18759.998
1000  17923.487
999  18048.422
998  17398.641
997  17003.432
996  16316.888
995  16236.4
994  16341.134
993  15969.277
992  15073.916
991  14871.237
990  14788.071
989  14883.548
988  14867.909
987  14919.152
986  15647.814
985  16487.164
984  17937.586
983  19253.543
982  20168.854
981  21676.667
980  22098.498
979  20348.409
978  18253.071
977  16650.639
976  15347.721
975  14080.662
974  13481.489
973  12501.878
972  12551.134
971  11728.465
970  10774.581
969  10292.215
968  10213.6
967  9724.355
966  9578.6007
965  9286.9964
964  9393.7152
963  9677.1405
962  9416.2691
961  9035.2695
960  9287.5016
959  9719.0354
958  9650.3964
957  9554.1141
956  9461.9876
955  9686.0844
954  9443.256
953  9305.2488
952  9536.4158
951  9564.6065
950  9477.4214
949  9613.4543
948  9696.3621
947  9889.2684
946  9730.246
945  9688.975
944  9556.8281
943  9542.7853
942  9817.6132
941  9613.6896
940  9676.9865
939  9870.3517
938  9977.4809
937  9685.5298
936  9928.0141
935  9628.9152
934  9846.0252
933  9667.5617
932  9714.8505
931  9717.1929
930  9912.618
929  10180.475
928  9972.0515
927  10026.565
926  10175.354
925  10509.129
924  10219.426
923  10095.932
922  10225.544
921  10167.903
920  10308.101
919  10591.618
918  10253.486
917  10292.896
916  10237.508
915  10623.272
914  10313.053
913  9970.359
912  10077.284
911  10243.602
910  10452.923
909  10360.766
908  10213.27
907  10474.752
906  10319.487
905  10849.689
904  10573.998
903  10414.921
902  10618.604
901  10736.433
900  10662.548
899  11094.665
898  10552.83
897  10083.515
896  10692.239
895  11074.823
894  10257.604
893  10766.29
892  10831.959
891  10820.354
890  10931.671
889  10863.142
888  11079.843
887  10994.032
886  11026.56
885  11082.333
884  11164.292
883  11212.294
882  11248.902
881  10966.174
880  10703.889
879  10860.963
878  10687.212
877  10921.568
876  10864.103
875  10992.197
874  11207.623
873  10824.619
872  11110.125
871  11651.735
870  11437.96
869  11244.833
868  11750.562
867  11130.115
866  11138.814
865  11219.697
864  11036.651
863  11265.325
862  11686.604
861  11450.899
860  11300.197
859  11624.133
858  11567.278
857  11589.677
856  11466.555
855  11667.324
854  11534.312
853  11949.748
852  11604.021
851  11708.4
850  11656.048
849  11484.076
848  11553.051
847  11671.016
846  11666.936
845  11838.509
844  11658.094
843  11490.428
842  12029.181
841  12107.868
840  11862.211
839  11900.945
838  12110.872
837  12043.844
836  12092.047
835  12025.761
834  12124.173
833  11784.25
832  11892.713
831  12336.391
830  12090.921
829  12119.424
828  11896.291
827  12074.901
826  12144.271
825  11990.323
824  11957.137
823  12150.263
822  12398.223
821  12148.838
820  12357.796
819  12485.296
818  12663.006
817  12348.52
816  12255.381
815  12566.999
814  12303.903
813  12274.798
812  12429.028
811  12657.604
810  12692.693
809  12518.113
808  12351.531
807  12517.203
806  12457.952
805  12607.724
804  13249.021
803  13408.295
802  12953.007
801  12933.548
800  12809.466
799  13238.862
798  12879.359
797  12927.66
796  13254.725
795  12993.266
794  12724.165
793  12746.511
792  13266.379
791  13197.039
790  13113.612
789  13350.974
788  13258.875
787  13498.347
786  13199.963
785  13006.218
784  12957.569
783  13050.353
782  13450.121
781  13215.965
780  13079.819
779  12805.303
778  13182.504
777  13302.18
776  13006.147
775  13727.587
774  13387.24
773  13288.864
772  13334.862
771  13846.006
770  13340.495
769  13230.827
768  13540.82
767  13472.484
766  13065.119
765  13290.162
764  13795.3
763  13895.444
762  13483.078
761  13758.199
760  13789.829
759  13648.851
758  13859.74
757  13518.631
756  13835.243
755  13755.987
754  13868.297
753  14122.692
752  13968.528
751  13896.325
750  13796.943
749  13787.092
748  13712.438
747  14439.381
746  14365.843
745  13705.255
744  13654.26
743  13849.766
742  14345.676
741  13949.27
740  13860.725
739  14492.149
738  14181.054
737  14294.001
736  14183.968
735  13992.755
734  14603.129
733  14733.706
732  14095.566
731  13851.859
730  14180.249
729  14364.628
728  14086.257
727  14472.191
726  14338.237
725  14339.871
724  14323.407
723  14495.874
722  14370.802
721  14265.712
720  14462.102
719  14948.899
718  14642.95
717  14249.588
716  14260.332
715  14460.271
714  14521.51
713  15017.535
712  14887.269
711  14752.095
710  14604.245
709  14443.977
708  14601.629
707  14985.943
706  14726.53
705  14884.743
704  14894.849
703  15281.936
702  15351.278
701  14935.92
700  14632.366
699  15237.69
698  15287.61
697  15269.927
696  15388.795
695  15046.363
694  14874.373
693  14965.15
692  14954.717
691  14879.851
690  15361.616
689  15497.966
688  15259.238
687  15581.732
686  15426.763
685  15298.426
684  15317.265
683  14862.806
682  15139.383
681  15426.39
680  15492.799
679  15447.615
678  15676.283
677  15241.301
676  15701.508
675  15497.151
674  15743.357
673  15968.542
672  15736.302
671  15710.268
670  15582.759
669  15471.46
668  15855.911
667  15935.383
666  15877.247
665  16220.73
664  16068.736
663  15890.477
662  15868.543
661  16051.018
660  15377.153
659  15731.48
658  15913.418
657  16233.47
656  16066.492
655  16298.864
654  16518.589
653  16209.531
652  16446.661
651  16451.813
650  16455.268
649  16162.836
648  16204.541
647  16572.366
646  16358.176
645  16402.198
644  16361.58
643  16584.693
642  16704.357
641  16917.273
640  16429.858
639  16539.022
638  16451.707
637  16446.839
636  16824.411
635  16625.306
634  16545.742
633  16478.148
632  16018.004
631  16825.336
630  16989.684
629  17032.284
628  16753.646
627  17136.319
626  16973.87
625  16735.83
624  17081.192
623  17018.618
622  17394.025
621  17374.718
620  17097.932
619  17346.536
618  16944.645
617  17240.914
616  17461.507
615  17794.851
614  17010.21
613  17207.402
612  17201.552
611  17517.065
610  17780.039
609  17598.76
608  17722.928
607  17264.473
606  17443.3
605  17453.941
604  17571.724
603  17648.845
602  17516.359
601  17238.952
600  17469.3
599  17511.049
598  16594.5
597  17778.445
596  17779.987
595  17494.837
594  17328.854
593  17255.793
592  17369.247
591  17603.792
590  17700.094
589  18079.13
588  17836.493
587  17632.638
586  17441.488
585  17985.772
584  18194.848
583  17881.646
582  17979.229
581  18253.927
580  18049.017
579  17749.843
578  18082.01
577  18026.237
576  18073.734
575  18079.972
574  17781.655
573  17554.155
572  17271.031
571  17124.765
570  16698.579
569  16341.469
568  16656.474
567  15889.707
566  16049.983
565  16851.157
564  17059.748
563  17728.67
562  18073.468
561  18958.404
560  19104.697
559  20181.366
558  20146.686
557  20637.501
556  20617.669
555  20406.852
554  19970.348
553  18653.221
552  17295.891
551  16735.846
550  15770.15
549  15670.464
548  14809.774
547  13725.586
546  12610.142
545  11543.228
544  10479.544
543  8601.6745
542  7598.7068
541  7500.6599
540  7216.0212
539  7169.4475
538  7286.7178
537  8612.0624
536  11968.169
535  27882.227
534  81107.819
533  95427.542
532  37731.313
531  12155.439
530  7655.916
529  6712.4558
528  5861.2164
527  5639.6292
526  5835.7697
525  5931.7421
524  5892.7422
523  5744.4428
522  5662.7956
521  5707.4492
520  5313.8306
519  5478.581
518  5422.4377
517  5652.8714
516  5628.5103
515  5586.4872
514  5865.9217
513  5581.9954
512  5303.5339
511  5287.3911
510  5511.3395
509  5801.2806
508  5255.1459
507  5379.3341
506  5512.2071
505  5871.0022
504  5810.6054
503  5728.712
502  5795.44
501  5703.4882
500  5793.5162
499  6577.4209
498  6592.5905
497  6373.5873
496  5887.8705
495  5601.1938
494  5350.8069
493  5451.7198
492  5300.5447
491  5668.8568
490  5532.3775
489  5721.9206
488  5587.2354
487  5721.2702
486  5931.4356
485  5806.6057
484  5816.5002
483  5873.0536
482  5628.6865
481  5304.9146
480  5724.7131
479  5603.6348
478  5701.1809
477  5839.9955
476  5627.7619
475  5616.8927
474  5893.9353
473  5627.4694
472  5601.2196
471  5523.9863
470  5651.2819
469  5547.9725
468  5513.245
467  5648.9997
466  5424.9202
465  5773.4608
464  5524.1621
463  5637.7482
462  5779.5706
461  5676.9966
460  5545.9908
459  5620.9433
458  5767.121
457  5926.2352
456  5713.92
455  5815.2134
454  5938.6506
453  5907.7036
452  5809.1903
451  6020.8884
450  5878.3384
449  5786.1823
448  5682.9569
447  5663.4556
446  5904.7231
445  5681.4522
444  5694.9296
443  5778.0869
442  5876.1553
441  5635.948
440  6048.4962
439  6041.3607
438  5791.7111
437  6250.497
436  6148.8278
435  5835.6946
434  5914.4795
433  5814.9842
432  5885.5736
431  5818.4926
430  5929.2239
429  5737.9145
428  5625.4257
427  5691.0188
426  5879.9045
425  5818.1
424  5533.0608
423  5765.8396
422  5833.2612
421  5720.296
420  5858.4134
419  5760.8546
418  5899.9016
417  6011.966
416  5722.302
415  5857.373
414  5827.5156
413  5767.1101
412  5608.7448
411  5757.3139
410  5681.6657
409  5694.5499
408  5769.3521
407  5681.7021
406  5829.381
405  5627.6624
404  5765.996
403  5969.4624
402  5901.1904
401  6145.9106
400  6049.6594
399  6188.075
398  5936.9647
397  5978.5663
396  6116.6026
395  6030.4556
394  5840.4211
393  5621.9474
392  5738.9118
391  5826.5562
390  5837.2009
389  5811.9563
388  5949.0066
387  6060.648
386  5816.2233
385  5824.7837
384  5915.8911
383  5882.7944
382  6043.53
381  6032.1806
380  6019.3464
379  6030.5406
378  6108.6158
377  5842.3479
376  5971.172
375  6136.9992
374  5972.4946
373  6030.277
372  6054.553
371  6025.4434
370  5974.0601
369  6082.1713
368  6019.598
367  6055.7684
366  6040.5853
365  5885.0285
364  6040.5065
363  5950.6402
362  5830.6034
361  5892.8206
360  6045.1464
359  6055.8798
358  6034.1252
357  6048.8372
356  6125.7721
355  6259.5763
354  6137.1019
353  6363.1373
352  6611.3981
351  6576.4127
350  6761.0297
349  6472.6838
348  6928.6186
347  6540.2536
346  6226.0532
345  6188.1576
344  6424.2591
343  6090.7163
342  6157.0751
341  6135.1247
340  6323.59
339  6416.2578
338  6269.5364
337  6271.0123
336  6043.2621
335  6017.4169
334  6362.6895
333  6456.4042
332  6523.1079
331  6399.6673
330  6168.7154
329  6244.2437
328  6491.7802
327  6775.9452
326  6485.2546
325  6191.6597
324  6540.6478
323  6398.0506
322  6615.1654
321  6246.5657
320  6545.8143
319  6503.9007
318  6513.6119
317  6470.3032
316  6702.5528
315  6416.2326
314  6712.7374
313  6761.2588
312  6992.1891
311  6884.3268
310  6666.0292
309  6906.2396
308  7047.0874
307  7004.8495
306  6953.8987
305  6962.5814
304  6980.5035
303  6658.6512
302  6504.9573
301  6411.6471
300  6545.5648
299  6532.7823
298  6856.4566
297  6496.919
296  6593.0233
295  6750.9346
294  6757.671
293  6271.6881
292  6267.5768
291  6001.4952
290  6281.6454
289  6721.8973
288  7620.7085
287  9987.0796
286  17325.251
285  19450.996
284  10767.722
283  6466.099
282  5901.544
281  5695.7257
280  5617.4303
279  5404.8159
278  5816.4771
277  5646.8555
276  5406.3343
275  5418.07
274  5759.2403
273  5702.679
272  5440.2273
271  5551.394
270  5414.8129
269  5542.0868
268  5397.7154
267  5557.5084
266  5572.2413
265  5472.4119
264  5560.1769
263  5496.9637
262  5723.2966
261  5595.8942
260  5554.5645
259  5262.1618
258  5266.1969
257  5803.8717
256  5854.9719
255  5581.1684
254  5447.0602
253  5587.5974
252  5641.4911
251  5556.753
250  5387.224
249  5665.988
248  5665.8984
247  5723.1358
246  5699.8074
245  5775.707
244  6094.2696
243  6104.188
242  6072.1917
241  5746.3896
240  6059.9207
239  6078.3486
238  5673.4088
237  5706.7754
236  5663.0874
235  5414.332
234  5652.7319
233  5425.1584
232  5362.9312
231  5689.7705
230  5746.4933
229  5497.3294
228  5853.8668
227  5853.3675
226  5650.1899
225  5765.9353
224  6130.9194
223  5830.094
222  5693.7977
221  5710.1043
220  5619.6392
219  5762.8217
218  5794.9825
217  5948.8074
216  5896.0902
215  5688.9809
214  5550.5432
213  5731.5195
212  5666.3469
211  5902.3946
210  5632.9402
209  5799.5198
208  5637.0728
207  5894.4586
206  5829.4359
205  5916.8227
204  5941.7363
203  5759.6872
202  5635.6802
201  5870.6442
200  6002.1541
199  6097.34
198  6084.2568
197  6362.682
196  6089.5243
195  6006.4885
194  6029.173
193  6302.721
192  6065.275
191  5762.3483
190  5863.0347
189  6000.5641
188  5843.9353
187  5642.091
186  5628.1786
185  5593.7531
184  5956.4469
183  5933.2712
182  6317.2176
181  6665.4266
180  6760.5346
179  6580.513
178  6719.6376
177  6626.1559
176  6937.1243
175  6573.8581
174  6509.9332
173  6441.4214
172  6282.8077
171  6051.4364
170  5519.0623
169  5591.8431
168  5435.1157
167  5042.0608
166  4520.7348
165  4398.7823
164  4174.1053
163  4463.3
162  4282.7641
161  4188.5602
160  4185.9545
159  4742.0145
158  5776.7867
157  9337.2105
156  16334.6
155  21067.079
154  16875.26
153  10185.976
152  6367.9886
151  4751.7276
150  4296.8454
149  4259.8514
148  3858.4757
147  3844.0314
146  3753.1593
145  3721.7789
144  3853.7909
143  3630.741
142  3717.2979
141  3354.1028
140  3409.7128
139  3584.5014
138  3363.6182
137  3335.789
136  3287.4571
135  3531.2272
134  3291.968
133  3548.501
132  3636.3944
131  3601.9784
130  3711.3613
129  3864.8185
128  4002.345
127  4288.2818
126  4090.539
125  4111.9446
124  3969.0702
123  3683.5615
122  3383.3725
121  3489.5969
120  3237.4383
119  3031.1512
118  2865.3473
117  2762.1786
116  2560.2027
115  2233.2176
114  1628.0899
113  1359.4239
112  1303.2911
111  1279.3594
110  1240.3141
109  1240.628
108  1357.6378
107  1960.6283
106  4749.778
105  15024.714
104  23380.237
103  13529.014
102  5158.7748
101  2106.6653
100  1383.5502
99  1148.7964
98  998.66876
97  988.78522
96  1052.8055
95  993.7096
94  1083.7368
93  1022.8123
92  1147.0652
91  1057.3003
90  955.81538
89  933.72893
88  884.4191
87  1058.25
86  1065.7448
85  989.90178
84  924.46486
83  928.71258
82  1039.6447
81  1109.1537
80  1110.1113
79  1081.5476
78  974.27205
77  1040.6531
76  1084.9707
75  1023.3691
74  994.79848
73  1054.3866
72  987.43377
71  997.41526
70  1134.4117
69  1105.2954
68  968.49546
67  1069.7997
66  1182.2673
65  1180.3856
64  1289.1762
63  1177.5963
62  953.04579
61  1052.7105
60  1159.9871
59  1136.8619
58  1199.5201
57  1056.5673
56  1239.9834
55  1223.5392
54  1290.2248
53  1369.898
52  1262.3084
51  1212.9111
50  1257.9237
49  1269.1047
48  1241.6522
47  1296.0162
46  1162.1701
45  1154.5224
44  1137.9261
43  936.62426
42  972.55856
41  994.26549
40  1058.8495
39  986.84197
38  760.62927
37  906.34097
36  793.60184
35  726.32298
34  848.49903
33  913.42636
32  1132.2117
31  1139.3816
30  1225.1869
29  1600.4829
28  2213.2141
27  3226.7796
26  3825.942
25  3155.5865
24  1658.9934
23  699.91248
22  442.54149
21  333.15687
20  272.57005
19  325.11883
18  361.52224
17  453.58991
16  790.45078
15  884.71786
14  963.65985
13  832.45176
12  810.18969
11  760.48883
10  747.93052
9  904.05923
8  953.83659
7  830.5467
6  420.25228
5  204.11703
4  80.357935
3  22.214977
2  23.315165
1  22.513558
0  1.48615