# Region:            Survey 80 s 3k 36uA H=5 
# Acquisition Date:  11/07/19 18:02:04 UTC
# Analysis Method:   XPS
# Analyzer:          Phoibos
# Analyzer Lens:     MediumArea:1.5kV
# Analyzer Slit:     4:3x20\B:open
# Scan Mode:         FixedAnalyzerTransmission
# Curves/Scan:       1
# Values/Curve:      1301
# Dwell Time:        0.1
# Excitation Energy: 1486.71
# Binding Energy:    1300
# Pass Energy:       50
# Bias Voltage:      90
# Detector Voltage:  1900
# Eff. Workfunction: 4.395
# Source:            Focus
# Comment:           
#
# Cycle: 0
# Number of Scans: 2
#
# Cycle: 0, Curve: 0
# Acquisition Date: 11/07/19 18:02:04 UTC
#
# ColumnLabels: energy counts/s
#
1300  15812.001
1299  15724.833
1298  15774.665
1297  15868.506
1296  16079.271
1295  16003.471
1294  16245.772
1293  15851.981
1292  16150.025
1291  15952.95
1290  15997.076
1289  15802.33
1288  15881.452
1287  15801.404
1286  15657.393
1285  15881.276
1284  15558.552
1283  15352.004
1282  15688.294
1281  15671.844
1280  15999.236
1279  15672.794
1278  16022.2
1277  16301.389
1276  15871.275
1275  16313.517
1274  16178.589
1273  16171.808
1272  16152.776
1271  15660.153
1270  15964.275
1269  16324.779
1268  16198.901
1267  16196.186
1266  16408.564
1265  16198.672
1264  15705.634
1263  16106.498
1262  15938.118
1261  15957.152
1260  15633.976
1259  16081.591
1258  16156.066
1257  16105.226
1256  15531.765
1255  16076.608
1254  16698.434
1253  16242.092
1252  15877.952
1251  16043.825
1250  16243.203
1249  16510.148
1248  16988.176
1247  16057.611
1246  16099.114
1245  16475.309
1244  17355.194
1243  16735.737
1242  16726.845
1241  16965.093
1240  16884.337
1239  16865.622
1238  16770.51
1237  16667.733
1236  16968.158
1235  16383.167
1234  16562.751
1233  16771.893
1232  17203.466
1231  16234.096
1230  17035.462
1229  17305.567
1228  17607.548
1227  17511.717
1226  17189.022
1225  17347.566
1224  16681.272
1223  16697.135
1222  17207.824
1221  17206.946
1220  16768.166
1219  16786.169
1218  16918.188
1217  16613.137
1216  16441.348
1215  16404.764
1214  16155.516
1213  16053.969
1212  15907.196
1211  15620.476
1210  16272.339
1209  16346.343
1208  15895.977
1207  15394.248
1206  15736.343
1205  16054.457
1204  15742.356
1203  15315.191
1202  15415.92
1201  15708.878
1200  15425.534
1199  15565.79
1198  15407.988
1197  15652.504
1196  15574.682
1195  15765.748
1194  15966.584
1193  15410.617
1192  15847.251
1191  15592.175
1190  15508.996
1189  15493.461
1188  15761.357
1187  15158.446
1186  15752.337
1185  15627.567
1184  15378.339
1183  15461.95
1182  15512.889
1181  15078.383
1180  15216.045
1179  15541.11
1178  16092.324
1177  15950.275
1176  15849.947
1175  15709.688
1174  15416.126
1173  15659.068
1172  15914.667
1171  15734.728
1170  15836.812
1169  15506.986
1168  15625.473
1167  15474.48
1166  16127.775
1165  15802.888
1164  15585.76
1163  16223.127
1162  15903.831
1161  15885.078
1160  16317.129
1159  15734.095
1158  15909.948
1157  15287.292
1156  15460.728
1155  15915.14
1154  15822.977
1153  16033.271
1152  15982.083
1151  16265.134
1150  15950.015
1149  15804.628
1148  15724.751
1147  15974.765
1146  16608.577
1145  16133.181
1144  15755.274
1143  15841.864
1142  16082.691
1141  15730.281
1140  15661.54
1139  15583.701
1138  15467.052
1137  15900.709
1136  15810.047
1135  16403.693
1134  16287.096
1133  15793.438
1132  15667.242
1131  16176.523
1130  15837.802
1129  16140.332
1128  15987.835
1127  15836.749
1126  15923.622
1125  15654.364
1124  15793.435
1123  15340.927
1122  15820.103
1121  16022.845
1120  15966.324
1119  16049.789
1118  16022.336
1117  16236.597
1116  16747.575
1115  16520.381
1114  16011.715
1113  16307.578
1112  16577.258
1111  15887.984
1110  16525.757
1109  16501.289
1108  16380.113
1107  16549.698
1106  16186.542
1105  16340.567
1104  16304.125
1103  16272.698
1102  16365.165
1101  16620.912
1100  16510.562
1099  16793.824
1098  16545.372
1097  16139.089
1096  16434.413
1095  16728.551
1094  15735.893
1093  16702.895
1092  16937.258
1091  16774.754
1090  16875.846
1089  16392.746
1088  16607.792
1087  16356.592
1086  16803.954
1085  16924.697
1084  16253.663
1083  16595.675
1082  16968.671
1081  16556.03
1080  16667.708
1079  16695.667
1078  16902.777
1077  16861.953
1076  16743.849
1075  16943.632
1074  17451.165
1073  16694.906
1072  17170.249
1071  16618.873
1070  17017.386
1069  17050.873
1068  17271.51
1067  16965.649
1066  17101.327
1065  16835.706
1064  16650.121
1063  16630.436
1062  16836.439
1061  16885.698
1060  16939.136
1059  16589.168
1058  16890.061
1057  16916.15
1056  17363.185
1055  17415.466
1054  17011.591
1053  16993.711
1052  17213.544
1051  17187.654
1050  17724.868
1049  17465.377
1048  17443.471
1047  17156.633
1046  17570.315
1045  17787.613
1044  17539.278
1043  17646.738
1042  17368.976
1041  17443.16
1040  17961.503
1039  17790.792
1038  17791.824
1037  17872.958
1036  17457.281
1035  18113.222
1034  17917.737
1033  18375.938
1032  18436.14
1031  18097.442
1030  18358.613
1029  18741.45
1028  18262.681
1027  18354.578
1026  18698.455
1025  18577.702
1024  18781.66
1023  19047.163
1022  19011.196
1021  19126.313
1020  19311.089
1019  19412.785
1018  19671.461
1017  19193.521
1016  19442.316
1015  18982.65
1014  18728.564
1013  17969.462
1012  18256.452
1011  18599.888
1010  19097.839
1009  19417.001
1008  20213.619
1007  20326.26
1006  20626.97
1005  20794.387
1004  20818.619
1003  21812.165
1002  21532.705
1001  20834.749
1000  20671.239
999  19544.762
998  18764.702
997  18418.753
996  18561.557
995  17540.139
994  17428.238
993  16979.502
992  16836.532
991  16795.628
990  17318.319
989  18086.592
988  17808.095
987  18476.165
986  19950.273
985  22880.53
984  24037.738
983  24952.263
982  26616.366
981  26987.898
980  25917.163
979  22688.178
978  19825.493
977  17887.546
976  16656.707
975  15440.662
974  14669.557
973  13233.941
972  12848.643
971  12000.508
970  11011.346
969  10529.778
968  10307.056
967  9382.4629
966  9284.4878
965  9445.6006
964  9158.3979
963  9174.2452
962  9801.3706
961  9508.1274
960  9778.4032
959  9721.4816
958  9481.5408
957  9381.6907
956  9296.5347
955  9626.8465
954  9509.003
953  9670.9057
952  9698.7577
951  9730.8995
950  9741.3303
949  9495.3333
948  9356.2624
947  9126.4221
946  9370.2674
945  9856.6406
944  9875.5134
943  9664.9396
942  9687.9598
941  9916.4641
940  10050.114
939  9992.1847
938  10157.84
937  10005.713
936  9891.7936
935  9517.8336
934  9648.089
933  9979.8279
932  10076.505
931  9722.7773
930  10190.148
929  10002.13
928  10011.709
927  10006.827
926  9736.4888
925  9819.8392
924  9709.8833
923  9615.5553
922  9963.1902
921  9794.6754
920  9936.0041
919  10026.846
918  10113.97
917  10082.245
916  9977.6627
915  10185.981
914  10267.058
913  10270.032
912  10354.548
911  10236.246
910  10164.495
909  9984.1213
908  10174.638
907  10188.59
906  10347.33
905  10558.485
904  10508.552
903  10445.389
902  10502.882
901  10461.544
900  10131.573
899  10752.744
898  10403.377
897  10270.592
896  10602.072
895  10357.472
894  10611.476
893  10498.658
892  10386.505
891  10332.313
890  10360.881
889  10625.165
888  10807.915
887  11026.292
886  10862.716
885  10588.672
884  10659.836
883  10867.332
882  11102.037
881  10964.887
880  10916.667
879  10966.739
878  11128.715
877  11167.989
876  11298.556
875  11052.581
874  10919.532
873  11161.413
872  10997.069
871  11324.59
870  11541.337
869  11301.282
868  11109.744
867  11035.747
866  11268.685
865  11442.116
864  11269.362
863  11187.035
862  11185.982
861  11551.149
860  11512.697
859  11183.436
858  10997.666
857  11154.368
856  11498.288
855  12083.046
854  11521.866
853  11961.391
852  11609.881
851  12077.737
850  11573.503
849  11742.639
848  11933.529
847  11923.288
846  12049.218
845  11732.794
844  11899.728
843  12210.697
842  11748.77
841  11411.73
840  11431.843
839  11573.431
838  11878.654
837  11817.084
836  12042.638
835  11880.13
834  11998.45
833  11784.731
832  11609.379
831  12290.216
830  11939.403
829  11971.446
828  11570.973
827  12032.526
826  12176.706
825  12222.318
824  12119.725
823  12462.396
822  12411.281
821  12216.931
820  12201.62
819  12203.787
818  12649.941
817  12750.99
816  12641.802
815  12687.102
814  12679.272
813  12640.215
812  12620.64
811  12412.631
810  12455.324
809  12810.416
808  12497.004
807  13323.22
806  13087.787
805  12831.174
804  13194.963
803  12968.817
802  13020.86
801  12424.622
800  12491.416
799  12739.773
798  13031.291
797  13387.914
796  13393.924
795  13447.285
794  13269.927
793  13161.901
792  13410.444
791  12905.953
790  13057.286
789  13029.813
788  13003.61
787  13033.317
786  13081.982
785  13095.242
784  12677.8
783  13131.275
782  13371.644
781  13344.434
780  13310.085
779  13273.654
778  13237.689
777  13367.243
776  13527.945
775  13541.371
774  13073.772
773  13318.985
772  13533.004
771  13482.556
770  13416.453
769  13629.293
768  13758.103
767  13690.986
766  13856.525
765  13835.85
764  13882.515
763  13789.287
762  13828.811
761  13991.113
760  13529.947
759  13809.56
758  13271.255
757  13840.076
756  14369.77
755  14272.229
754  14004.234
753  13888.977
752  13833.79
751  13819.942
750  13556.266
749  13903.783
748  13835.499
747  14228.751
746  14483.543
745  14241.849
744  13863.607
743  13990.108
742  13841.346
741  13917.522
740  14317.579
739  14020.601
738  14088.738
737  14410.664
736  14001.547
735  14292.158
734  14368.431
733  14302.416
732  14572.228
731  14793.728
730  14375.145
729  14236.329
728  14555.582
727  14409.119
726  14557.945
725  14415.106
724  14012.037
723  14790.285
722  14788.33
721  14304.623
720  14689.159
719  14687.129
718  14943.478
717  14776.592
716  14579.112
715  14644.525
714  14448.056
713  14926.861
712  14934.601
711  14913.046
710  14708.864
709  14679.541
708  14981.774
707  15192.155
706  15078.155
705  14953.862
704  14822.589
703  14774.485
702  15184.227
701  15151.031
700  15148.252
699  14968.404
698  15563.256
697  15354.136
696  14950.876
695  14919.783
694  15393.658
693  15261.091
692  15439.594
691  15414.21
690  15157.976
689  15788.103
688  15774.048
687  15623.095
686  15321.038
685  15766.555
684  15291.762
683  15724.472
682  15843.824
681  15956.428
680  16016.782
679  16256.771
678  15405.43
677  15957.035
676  15737.44
675  15882.723
674  15844.555
673  16195.812
672  16189.274
671  16014.896
670  16006.676
669  16004.473
668  16102.075
667  16086.3
666  16237.821
665  16256.846
664  16894.477
663  15881.876
662  15996.288
661  16203.622
660  16173.009
659  15652.337
658  16314.389
657  16123.117
656  16524.825
655  16461.769
654  16318.64
653  16398.164
652  16251.462
651  16734.933
650  16547.553
649  16082.277
648  16565.549
647  16728.272
646  17085.625
645  16384.914
644  16260.426
643  16656.227
642  16745.258
641  16942.85
640  16942.044
639  17181.282
638  17101.99
637  17297.921
636  17187.51
635  16620.921
634  17184.757
633  17598.38
632  17306.389
631  16998.757
630  17289.128
629  17780.569
628  17314.698
627  17218.336
626  17438.474
625  17691.427
624  17566.796
623  17737.025
622  17773.155
621  17856.542
620  17835.041
619  17868.875
618  17820.291
617  17363.735
616  17450.899
615  17870.782
614  18026.299
613  17605.01
612  17285.532
611  17450.811
610  17857.356
609  18178.425
608  17662.396
607  17672.413
606  18007.325
605  17614.112
604  17868.658
603  17953.151
602  18103.75
601  18031.006
600  17954.557
599  18552.267
598  18357.652
597  18258.295
596  17716.775
595  17818.062
594  18127.133
593  18467.118
592  18347.563
591  18156.107
590  18318.775
589  18274.77
588  18222.233
587  18540.612
586  18458.107
585  18768.901
584  19011.901
583  18990.282
582  18966.607
581  18928.056
580  18741.573
579  18629.44
578  18445.875
577  18499.387
576  18154.586
575  18446.383
574  18092.883
573  18363.516
572  18439.868
571  17400.749
570  17668.231
569  17615.197
568  17386.441
567  17754.602
566  18115.772
565  17922.362
564  18662.408
563  19614.926
562  19977.589
561  20847.393
560  21457.16
559  21845.387
558  22273.493
557  22510.743
556  22450.474
555  21200.679
554  19630.052
553  18636.222
552  17242.016
551  16691.284
550  16279.356
549  15303.24
548  14260.142
547  13702.151
546  12377.363
545  11463.055
544  10359.622
543  9198.6081
542  8589.156
541  8164.8745
540  8456.38
539  8710.1634
538  10794.888
537  15835.296
536  31527.313
535  84652.056
534  121911.62
533  61427.306
532  17468.735
531  8297.6138
530  6866.7523
529  6348.1519
528  5989.0936
527  5655.449
526  5864.4239
525  5811.3397
524  5864.8307
523  5823.26
522  5665.8911
521  5929.3712
520  6068.8573
519  5642.7214
518  5849.8787
517  5717.7229
516  5890.9159
515  5806.351
514  5964.6035
513  5914.2135
512  5901.5297
511  5660.4318
510  5669.2037
509  5822.1867
508  5742.6128
507  5754.1703
506  5869.6065
505  5916.1857
504  6085.2605
503  5557.3435
502  5874.0532
501  5885.6185
500  6064.0461
499  6009.0237
498  5854.5811
497  5765.8195
496  5622.1038
495  5916.05
494  5803.3114
493  5402.1824
492  5873.6712
491  5562.0416
490  5523.406
489  5450.7718
488  5769.1018
487  5813.6065
486  6063.1151
485  5579.9587
484  5655.617
483  5895.0488
482  5668.5118
481  5880.2402
480  5661.9361
479  5735.1814
478  5762.2105
477  6019.7245
476  5972.087
475  5806.9306
474  5921.4952
473  5830.71
472  6010.0567
471  5865.4311
470  5861.4802
469  5767.3464
468  6043.5402
467  5879.2386
466  5679.2397
465  5592.8932
464  5757.9939
463  5955.4916
462  5577.9172
461  5832.32
460  5950.0687
459  5915.0883
458  5797.9123
457  5816.8761
456  5865.8352
455  5759.0874
454  6083.383
453  5964.4656
452  5951.5853
451  5908.5651
450  5824.0568
449  5750.8124
448  5678.112
447  6105.8832
446  5951.7501
445  6032.68
444  5679.3168
443  5737.4038
442  6019.5481
441  6113.4126
440  6149.0746
439  6030.458
438  5918.1321
437  6112.8045
436  5847.1383
435  5759.7205
434  5810.8294
433  6204.4619
432  6167.5189
431  6035.0411
430  5798.8898
429  6054.6993
428  5921.948
427  6320.1078
426  6317.596
425  5918.6384
424  5815.5079
423  6244.3077
422  6306.111
421  6142.5446
420  5675.601
419  5935.701
418  6166.7476
417  6144.5123
416  5933.735
415  5890.9328
414  6002.4762
413  5791.3284
412  6156.4897
411  6078.3967
410  6123.8651
409  6100.1274
408  6039.7755
407  6188.0587
406  6242.7052
405  6063.1769
404  6084.0753
403  6091.2367
402  6132.5506
401  6192.8346
400  6485.0643
399  6451.0012
398  6095.8185
397  5876.9994
396  6117.5379
395  6088.4393
394  6196.5952
393  6330.0638
392  6070.7737
391  6240.7722
390  6041.6372
389  6288.9146
388  5971.0725
387  6239.265
386  6290.9714
385  6256.7951
384  6105.1165
383  6342.5181
382  6134.8491
381  5971.2373
380  6121.8958
379  6137.895
378  6232.9102
377  5985.4812
376  6099.6725
375  6419.9126
374  6006.9351
373  6125.4451
372  6082.7663
371  6379.1923
370  6318.997
369  6422.3217
368  6013.263
367  6125.5422
366  6189.9818
365  6264.2736
364  6021.67
363  6057.7714
362  6265.6059
361  6247.0085
360  6352.1819
359  6318.3089
358  6135.045
357  6223.694
356  6178.3475
355  6580.407
354  6422.2652
353  6577.0528
352  6504.7184
351  6658.6716
350  6849.3021
349  7150.549
348  6741.4441
347  6455.2976
346  6450.2257
345  6077.588
344  6125.2304
343  6202.7745
342  6125.7721
341  6234.8785
340  6461.1072
339  6234.6895
338  6242.703
337  6124.8162
336  6265.6168
335  6479.307
334  6158.2845
333  6161.4981
332  6751.9282
331  6276.4625
330  5883.9355
329  6279.5287
328  6283.7377
327  6475.5221
326  6256.6622
325  6458.5628
324  6365.1326
323  6495.442
322  6291.8684
321  6374.8414
320  6343.4765
319  6602.2672
318  6426.5673
317  6142.7542
316  6048.4137
315  6148.6334
314  6306.5521
313  6467.5334
312  6450.7473
311  6539.4302
310  6526.2193
309  6380.239
308  6315.1894
307  6404.7096
306  6401.1279
305  6514.1442
304  6363.1494
303  6503.0724
302  6402.3838
301  6380.0038
300  6422.5059
299  6237.6074
298  6358.3301
297  6414.7958
296  6666.6236
295  6585.4334
294  6358.5348
293  6296.1022
292  6530.4144
291  6479.0457
290  6501.622
289  6729.4787
288  7435.1119
287  8848.9269
286  10617.684
285  9496.61
284  7059.8853
283  6353.363
282  5938.6261
281  6210.4241
280  6064.1132
279  6153.0365
278  6142.9878
277  5923.512
276  5962.0408
275  5953.409
274  5811.3513
273  6179.3648
272  6159.5707
271  6090.3781
270  6021.0567
269  6018.8474
268  5950.3044
267  6127.7403
266  5921.821
265  5944.2069
264  5762.5707
263  5948.3484
262  6061.6305
261  6014.4658
260  5886.4466
259  5838.7414
258  5694.6603
257  5902.1833
256  6006.4809
255  5784.3889
254  5953.49
253  5587.7148
252  5760.785
251  6038.0263
250  5953.2533
249  6113.0609
248  6005.8288
247  5939.7002
246  6108.0582
245  6488.1424
244  6670.5499
243  6643.807
242  6222.6193
241  5725.6188
240  5739.5482
239  5694.3802
238  5937.3938
237  5806.1222
236  5872.4724
235  5929.7313
234  5680.6668
233  5834.3582
232  5856.4558
231  5635.2195
230  5872.1846
229  5845.9888
228  5958.6572
227  5829.1549
226  5635.5759
225  6125.3244
224  5919.8856
223  5726.623
222  5841.8998
221  5759.2184
220  5741.6502
219  5981.2435
218  5861.4772
217  5813.6156
216  6029.1875
215  5935.82
214  6162.6239
213  5901.3769
212  5861.6477
211  6030.4661
210  6034.4288
209  5979.2665
208  5910.2347
207  6063.8124
206  5981.5821
205  6185.2987
204  6030.1297
203  6301.8729
202  6102.6767
201  6466.9572
200  6438.9616
199  6411.5258
198  6410.0782
197  6279.6846
196  6107.873
195  6352.6718
194  6142.341
193  6048.6668
192  6298.4141
191  6198.6504
190  5842.6889
189  5908.5721
188  6059.0561
187  5978.0382
186  6284.1639
185  6156.9315
184  6227.5433
183  6393.7957
182  6615.9903
181  6624.4475
180  6712.5182
179  6818.173
178  7502.272
177  6903.1136
176  6956.9206
175  6847.8667
174  6827.0623
173  6456.4772
172  6163.345
171  5973.4179
170  5753.09
169  5551.2997
168  5186.1369
167  5012.9497
166  4795.4365
165  4724.9084
164  4648.1984
163  4387.0193
162  4636.1935
161  4744.6874
160  5501.3123
159  6915.2515
158  10316.988
157  17473.996
156  24836.628
155  22045.214
154  13046.836
153  7985.7798
152  5655.0652
151  4784.9495
150  4243.8076
149  4274.9201
148  3870.03
147  3915.8495
146  3959.1502
145  3717.4893
144  3809.2482
143  3669.6984
142  3923.9596
141  3714.0325
140  3441.879
139  3429.8591
138  3615.4165
137  3605.7727
136  3502.2774
135  3616.4457
134  3555.3192
133  3867.422
132  3909.6788
131  4013.0125
130  4328.0371
129  4601.1244
128  4690.8828
127  4755.2042
126  4475.0979
125  4264.3023
124  4035.3134
123  4136.8108
122  3888.4815
121  3543.9123
120  3415.0418
119  3123.8629
118  2731.6907
117  2689.0411
116  2388.2842
115  2010.6597
114  1815.9686
113  1616.412
112  1583.6016
111  1597.9821
110  1589.0381
109  1750.8845
108  2409.2983
107  5421.4046
106  15163.616
105  27318.273
104  22058.755
103  8142.1282
102  2899.15
101  1613.0937
100  1224.0852
99  1066.5859
98  1070.6768
97  1012.1941
96  919.26099
95  965.90411
94  1029.8197
93  1098.4333
92  1221.3284
91  1044.0676
90  1042.7271
89  1095.3199
88  1106.7798
87  1139.3307
86  1039.2342
85  1044.2689
84  1088.8747
83  1028.0368
82  1136.1997
81  1177.4077
80  1073.4868
79  1196.8818
78  1048.4841
77  1096.8602
76  1124.186
75  1165.6735
74  1097.6242
73  1233.6577
72  1243.0161
71  1159.1505
70  997.84118
69  1160.498
68  1154.1318
67  1114.7442
66  1126.3118
65  1049.4796
64  1127.6395
63  1185.3873
62  1221.0618
61  1033.9853
60  1221.7956
59  1230.3813
58  1107.5718
57  1161.4215
56  1271.1824
55  1333.7167
54  1287.1478
53  1346.0118
52  1371.0196
51  1321.0753
50  1380.7497
49  1330.6902
48  1289.2388
47  1220.5216
46  1213.1218
45  1213.8641
44  1024.1331
43  937.8166
42  1017.4115
41  1007.9373
40  937.08771
39  894.71423
38  912.52867
37  946.9684
36  1036.8691
35  899.73904
34  1051.4995
33  1098.1444
32  1144.0547
31  1438.7656
30  1726.9205
29  2490.872
28  3699.3795
27  4453.8079
26  3783.0316
25  1998.8263
24  1062.7684
23  590.87207
22  385.85563
21  279.19273
20  274.29797
19  246.62606
18  389.42709
17  680.03646
16  983.54162
15  1084.8831
14  1127.2308
13  1180.1427
12  1004.2586
11  1083.6713
10  1124.7561
9  1086.0585
8  810.4349
7  617.75861
6  312.84111
5  130.37581
4  50.30124
3  29.326185
2  19.631925
1  11.827165
0  8.556225