# Region:            Survey 200s 3k 36uA H=5 (3)
# Acquisition Date:  11/07/19 19:39:52 UTC
# Analysis Method:   XPS
# Analyzer:          Phoibos
# Analyzer Lens:     MediumArea:1.5kV
# Analyzer Slit:     4:3x20\B:open
# Scan Mode:         FixedAnalyzerTransmission
# Curves/Scan:       1
# Values/Curve:      1301
# Dwell Time:        0.1
# Excitation Energy: 1486.71
# Binding Energy:    1300
# Pass Energy:       50
# Bias Voltage:      90
# Detector Voltage:  1900
# Eff. Workfunction: 4.395
# Source:            Focus
# Comment:           
#
# Cycle: 0
# Number of Scans: 2
#
# Cycle: 0, Curve: 0
# Acquisition Date: 11/07/19 19:39:52 UTC
#
# ColumnLabels: energy counts/s
#
1300  15692.279
1299  15106.127
1298  15106.826
1297  15088.726
1296  15372.07
1295  14777.144
1294  15459.889
1293  15496.22
1292  15508.78
1291  15795.089
1290  15443.121
1289  15557.701
1288  15459.83
1287  15450.706
1286  15609.617
1285  15250.84
1284  15827.338
1283  15778.329
1282  15282.451
1281  15596.903
1280  15615.768
1279  15612.271
1278  15183.349
1277  14889.955
1276  15131.369
1275  15411.923
1274  15367.706
1273  15479.524
1272  15500.262
1271  15530.371
1270  15406.369
1269  15555.055
1268  15222.896
1267  15258.961
1266  15324.574
1265  15106.673
1264  15260.143
1263  15381.878
1262  15486.332
1261  15820.182
1260  15468.438
1259  15289.828
1258  15025.028
1257  15625.311
1256  15001.271
1255  15170.483
1254  15638.194
1253  15035.138
1252  15327.419
1251  15489.38
1250  15248.309
1249  15077.142
1248  15430.573
1247  15937.391
1246  15089.436
1245  14967.153
1244  14978.189
1243  15263.19
1242  15526.509
1241  15312.087
1240  15233.641
1239  15820.069
1238  15695.222
1237  15439.864
1236  15530.56
1235  15198.762
1234  15092.389
1233  15353.31
1232  15492.669
1231  15303.305
1230  15536.745
1229  15313.593
1228  15608.462
1227  15077.668
1226  15256.264
1225  15438.595
1224  15630.401
1223  15241.448
1222  15168.186
1221  15449.275
1220  15752.446
1219  15694.032
1218  14959.321
1217  15078.679
1216  15292.403
1215  15137.739
1214  15242.711
1213  15593.907
1212  15610.402
1211  15416.633
1210  14767.513
1209  14935.473
1208  15623.638
1207  14779.304
1206  15379.288
1205  15326.029
1204  15010.22
1203  15205.897
1202  15632.905
1201  15999.275
1200  15740.592
1199  15255.954
1198  15227.614
1197  15628.185
1196  15422.533
1195  15613.533
1194  15420.92
1193  15423.481
1192  15251.561
1191  15200.003
1190  15352.695
1189  15112.722
1188  15263.005
1187  15489.971
1186  15302.23
1185  15196.154
1184  14909.982
1183  15026.994
1182  15652.732
1181  15859.385
1180  15511.335
1179  15290.931
1178  15514.267
1177  15447.966
1176  15344.453
1175  15415.294
1174  15555.163
1173  15295.616
1172  15667.508
1171  15250.106
1170  15086.971
1169  15479.295
1168  15465.947
1167  15465.342
1166  15530.88
1165  15551.774
1164  15482.14
1163  15235.303
1162  15723.491
1161  15190.637
1160  15303.263
1159  15578.492
1158  15659.33
1157  15145.157
1156  15307.999
1155  15684.655
1154  15655.163
1153  15386.732
1152  14969.839
1151  15371.385
1150  15055.485
1149  15371.69
1148  15669.229
1147  15633.543
1146  15266.832
1145  14926.557
1144  15614.072
1143  15499.162
1142  15749.887
1141  15399.709
1140  15409.512
1139  15203.162
1138  15428.45
1137  15403.198
1136  15622.82
1135  15553.952
1134  15465.571
1133  16017.796
1132  15738.529
1131  15428.36
1130  15162.055
1129  15618.933
1128  15664.486
1127  15483.591
1126  15538.711
1125  16164.198
1124  15661.145
1123  15691.852
1122  15985.092
1121  15058.264
1120  15337.967
1119  15311.874
1118  15934.503
1117  15647.772
1116  15882.398
1115  16071.003
1114  15739.941
1113  15442.891
1112  15782.307
1111  16165.094
1110  15841.22
1109  15707.366
1108  15990.833
1107  16026.221
1106  15897.409
1105  16159.1
1104  15874.897
1103  15532.672
1102  16227.871
1101  15855.399
1100  15946.591
1099  16008.409
1098  16226.829
1097  16340.564
1096  16056.174
1095  16236.683
1094  15767.191
1093  15756.783
1092  16183.358
1091  15997.891
1090  15969.599
1089  16013.538
1088  15784.864
1087  16500.878
1086  16450.259
1085  16347.853
1084  16097.053
1083  16486.905
1082  16252.756
1081  16133.165
1080  16262.225
1079  15978.8
1078  16466.231
1077  16219.549
1076  16178.46
1075  16388.456
1074  16282.642
1073  16398.452
1072  16688.345
1071  16437.649
1070  17135.299
1069  16693.627
1068  16904.542
1067  16865.993
1066  16941.391
1065  16886.069
1064  16408.002
1063  16561.305
1062  16570.724
1061  16156.5
1060  16287.054
1059  16993.548
1058  16749.424
1057  16987.759
1056  17241.986
1055  16990.516
1054  17059.955
1053  17321.334
1052  17185.89
1051  17163.426
1050  17450.776
1049  17626.654
1048  17298.596
1047  17614.182
1046  17280.001
1045  17392.285
1044  17271.402
1043  17365.987
1042  17806.173
1041  17840.529
1040  17621.362
1039  17623.364
1038  17562.869
1037  17362.603
1036  17758.332
1035  17511.353
1034  17672.901
1033  18243.666
1032  17807.378
1031  17966.173
1030  18030.578
1029  18088.55
1028  17845.479
1027  18866.625
1026  18908.841
1025  18929.779
1024  18748.172
1023  18431.368
1022  18682.404
1021  18995.726
1020  19355.626
1019  20124.78
1018  19447.262
1017  19003.908
1016  19078.209
1015  18888.653
1014  18440.304
1013  18715.003
1012  18838.562
1011  19048.335
1010  18741.03
1009  19350.156
1008  19994.683
1007  21325.886
1006  20959.627
1005  21522.092
1004  21968.959
1003  22693.789
1002  22236.61
1001  21268.074
1000  20287.055
999  20056.483
998  19357.305
997  18694.006
996  18462.788
995  17627.218
994  16856.448
993  16707.711
992  17049.451
991  17802.061
990  17917.944
989  18581.824
988  19021.217
987  20360.623
986  22552.759
985  24770.262
984  26637.336
983  28562.125
982  30573.125
981  29935.9
980  26279.046
979  22738.854
978  20498.735
977  18558.999
976  17180.594
975  15695.232
974  14623.85
973  13629.4
972  12383.249
971  11450.651
970  10654.224
969  9928.8404
968  9313.4371
967  9303.8468
966  9503.6496
965  9348.8378
964  9162.3387
963  9204.3102
962  9111.558
961  9063.2269
960  9202.3601
959  9164.676
958  8939.7907
957  9211.7231
956  9309.9083
955  9140.5439
954  9356.3932
953  9428.3817
952  9037.0624
951  8905.619
950  9184.1843
949  8905.3544
948  8776.017
947  9146.1401
946  9357.4942
945  9325.8582
944  9307.8573
943  9272.0389
942  9478.018
941  9465.692
940  9322.2676
939  9470.6886
938  9285.2576
937  9233.706
936  9496.8311
935  9444.7495
934  9537.9454
933  9512.5823
932  9349.4969
931  9115.0741
930  9620.3874
929  9745.8386
928  9809.8279
927  10081.609
926  9747.5109
925  9637.3351
924  9662.1901
923  9431.5584
922  9597.5279
921  9589.5073
920  9829.2787
919  9869.6812
918  9673.902
917  9901.8659
916  9893.0557
915  10080.508
914  10011.803
913  9634.8943
912  9778.3405
911  10027.168
910  10151.266
909  9741.7784
908  9763.1803
907  9709.7681
906  10020.84
905  9884.553
904  9998.4429
903  10067.833
902  10241.111
901  10206.723
900  10258.098
899  9878.8141
898  10319.584
897  10151.162
896  9855.6672
895  10073.5
894  10236.662
893  10017.981
892  10530.825
891  10468.982
890  10849.965
889  10903.987
888  10077.088
887  10182.928
886  10103.319
885  10587.737
884  10689.635
883  10545.319
882  10653.798
881  10687.623
880  10824.277
879  10616.5
878  10595.192
877  10389.054
876  10839.056
875  10892.457
874  10653.25
873  10950.868
872  10975.289
871  10519.02
870  10351.237
869  10685.698
868  10639.318
867  10781.616
866  10923.653
865  11088.643
864  11117.753
863  10793.066
862  10683.516
861  10898.199
860  10983.213
859  11251.378
858  11110.598
857  11176.09
856  11296.633
855  11187.868
854  10768.955
853  11200.314
852  11334.884
851  11241.604
850  11094.528
849  11160.869
848  11316.341
847  11407.249
846  11542.85
845  11562.253
844  11940.778
843  11783.918
842  11792.009
841  11505.883
840  11411.739
839  11555.143
838  11509.931
837  11320.49
836  11727.904
835  11802.995
834  11708.291
833  11754.19
832  11922.326
831  11919.967
830  11680.271
829  12179.68
828  11880.487
827  12233.618
826  11927.701
825  12089.91
824  12349.189
823  11551.428
822  11944.711
821  12037.983
820  11967.989
819  11747.894
818  11949.249
817  11798.757
816  12304.659
815  11969.618
814  12311.678
813  12205.245
812  12279.482
811  12061.299
810  12391.746
809  12592.804
808  12746.258
807  12568.778
806  12716.692
805  12261.059
804  12474.785
803  12294.428
802  12321.524
801  12371.546
800  12524.329
799  12518.623
798  12036.363
797  12312.355
796  12475.63
795  12341.844
794  12399.317
793  12721.271
792  13234.871
791  12991.689
790  13047.646
789  12876
788  12969.679
787  12397.82
786  12943.3
785  12724.977
784  13015.586
783  13217.897
782  13006.982
781  13124.434
780  13249.45
779  13037.308
778  12848.905
777  13435.222
776  12991.797
775  13054.899
774  13390.998
773  13564.171
772  13740.653
771  13254.119
770  13229.703
769  13375.446
768  13670.754
767  13536.202
766  13408.813
765  13265.11
764  13746.58
763  13958.163
762  13776.027
761  13222.842
760  13681.571
759  13730.932
758  13700.642
757  13508.172
756  13528.934
755  13523.84
754  13887.71
753  13748.416
752  13813.578
751  13308.986
750  13495.914
749  13895.803
748  13399.76
747  13515.839
746  13943.062
745  13605.593
744  13902.943
743  13967.677
742  13732.284
741  14003.968
740  14140.729
739  14343.609
738  13955.335
737  14147.539
736  13943.935
735  13703.66
734  13409.759
733  14024.448
732  14093.858
731  13746.265
730  14066.551
729  14444.318
728  14327.127
727  14428.403
726  14639.476
725  14350.46
724  14164.75
723  14298.623
722  14712.565
721  14355.558
720  14075.897
719  14515.899
718  14381.236
717  14388.416
716  14358.765
715  14440.677
714  14227.226
713  14849.916
712  15124.076
711  14794.956
710  14912.266
709  14677.285
708  15066.792
707  14914.218
706  15003.43
705  14955.144
704  15070.002
703  15537.709
702  14945.551
701  15010.964
700  14866.687
699  14953.538
698  14979.211
697  15110.87
696  14995.757
695  14935.385
694  15006.691
693  15059.179
692  15510.669
691  15880.082
690  15300.259
689  14983.591
688  15444.195
687  15856.711
686  15521.301
685  15318.303
684  15432.148
683  15739.823
682  15633.213
681  15170.707
680  15306.359
679  15355.76
678  15531.761
677  15405.617
676  16010.177
675  15846.786
674  15935.964
673  16426.111
672  15986.066
671  16031.353
670  15265.487
669  15455.186
668  15585.244
667  16057.028
666  16211.106
665  16359.774
664  16241.427
663  16432.821
662  16394.242
661  16235.859
660  16342.54
659  16026.919
658  16482.048
657  16703.352
656  16544.107
655  16783.695
654  16388.792
653  16279.484
652  16151.164
651  16323.479
650  16624.767
649  16428.348
648  16966.194
647  16639.633
646  17095.829
645  16825.985
644  16908.182
643  16876.079
642  17266.134
641  16875.206
640  16941.715
639  16705.574
638  17338.827
637  17103.96
636  16636.044
635  17049.363
634  17008.745
633  16879.436
632  17006.414
631  16815.259
630  17095.208
629  17225.633
628  17491.632
627  17571.982
626  17217.393
625  17199.177
624  16991.875
623  16928.857
622  17513.42
621  17691.348
620  17534.031
619  17792.841
618  17918.391
617  17956.683
616  17783.118
615  18268.188
614  17710.126
613  17555.937
612  18261.043
611  18035.256
610  17900.054
609  17482.945
608  18518.66
607  18424.866
606  17856.021
605  17865.092
604  17929.118
603  18595.36
602  18355.175
601  18679.488
600  18887.382
599  18591.099
598  18407.769
597  18169.962
596  17660.593
595  17644.812
594  18048.362
593  18394.414
592  18480.43
591  18774.233
590  19017.722
589  18610.968
588  19002.79
587  19269.456
586  18987.541
585  18890.156
584  19941.345
583  19262.249
582  19017.974
581  18905.466
580  18793.865
579  18809.26
578  18831.568
577  18828.524
576  19119.529
575  19293.468
574  19129.317
573  18849.332
572  18314.606
571  18093.993
570  18586.559
569  17797.503
568  17146.298
567  17718.896
566  18255.772
565  18780.928
564  19946.775
563  20741.154
562  21115.369
561  21820.836
560  22799.51
559  23185.249
558  23285.188
557  23355.094
556  22478.733
555  21692.035
554  20242.214
553  18781.294
552  17856.004
551  16939.214
550  16018.706
549  14882.891
548  14239.659
547  13423.829
546  12701.753
545  11300.538
544  10054.701
543  9091.7388
542  8936.3347
541  8504.5335
540  8198.5358
539  8994.6832
538  11930.231
537  21069.212
536  50457.436
535  114953.94
534  118472.88
533  46080.625
532  13348.217
531  8040.6314
530  6880.087
529  6371.1779
528  6278.0549
527  6040.2469
526  6043.5758
525  5684.162
524  6350.836
523  6123.5737
522  5856.7652
521  6002.1834
520  5974.0145
519  5982.8838
518  6001.1902
517  6095.8186
516  5996.6829
515  6066.0628
514  6369.0892
513  5862.9597
512  5883.3738
511  6004.8219
510  5741.7283
509  6225.8995
508  5976.0098
507  6052.1976
506  6070.5273
505  5759.0959
504  5861.4751
503  5753.7236
502  5942.9775
501  5936.9634
500  6151.7892
499  5921.6194
498  5984.9195
497  6139.5257
496  5986.2523
495  6098.8328
494  5833.5631
493  5953.1807
492  6038.3549
491  6177.3038
490  6260.9954
489  6404.7556
488  5995.7406
487  6087.0696
486  6098.4239
485  6130.1721
484  6270.3127
483  6090.2484
482  6069.8427
481  6143.5739
480  6110.7876
479  6141.1579
478  6319.3475
477  6194.9251
476  6316.5371
475  6405.3727
474  6161.9578
473  6271.0776
472  6293.0002
471  6504.1044
470  6476.9473
469  6400.4085
468  6095.8501
467  5944.0611
466  6160.6706
465  6203.9169
464  6416.9416
463  6170.8088
462  6069.5534
461  6198.3236
460  6280.347
459  6231.9794
458  6253.2996
457  6198.8846
456  6220.7196
455  6192.6535
454  6245.5652
453  6328.553
452  6378.5906
451  6630.4001
450  6395.9526
449  6481.3104
448  6262.2412
447  6495.6881
446  6619.8508
445  6367.1815
444  6343.0802
443  6409.9304
442  6772.559
441  6425.5054
440  6458.4523
439  6494.2022
438  6397.1134
437  6292.0787
436  6283.6599
435  6296.1267
434  6403.8137
433  6437.7845
432  6437.3428
431  6295.4602
430  6325.0547
429  6334.4153
428  6331.2345
427  6268.1252
426  6117.273
425  6446.2046
424  6461.5362
423  6279.4861
422  6265.191
421  6347.3142
420  6435.5538
419  6314.2249
418  6675.2288
417  6163.2085
416  6418.3039
415  6253.5127
414  6511.121
413  6592.9939
412  6282.525
411  6267.7059
410  6437.4436
409  6272.9071
408  6301.6262
407  6743.6466
406  6735.1846
405  6390.1652
404  6463.5757
403  6723.7945
402  6771.8208
401  6839.3553
400  6788.744
399  6739.3629
398  6581.028
397  6438.6353
396  6085.6497
395  6256.3758
394  6567.3009
393  6540.7662
392  6461.845
391  6384.1097
390  6684.0478
389  6577.9243
388  6520.879
387  6233.8545
386  6190.1807
385  6276.9601
384  6598.6295
383  6445.9431
382  6645.5174
381  6663.1102
380  6069.0645
379  6314.2629
378  6412.5006
377  6804.2014
376  6748.5908
375  6563.2166
374  6565.1152
373  6671.8598
372  6947.1889
371  6757.9318
370  6724.155
369  6473.569
368  6558.2172
367  6462.8629
366  6269.8259
365  6219.0994
364  6354.2272
363  6674.3505
362  6588.3509
361  6691.0581
360  6836.7747
359  6704.3144
358  6605.407
357  6769.8819
356  6622.854
355  6474.76
354  6693.5349
353  7088.0201
352  6785.2171
351  6882.1017
350  6798.364
349  6898.8016
348  6894.9111
347  6526.5635
346  6539.7086
345  6406.3063
344  6212.8609
343  6608.759
342  6809.367
341  6606.784
340  6474.005
339  6704.5823
338  6729.2824
337  6401.9804
336  6733.0505
335  6575.1474
334  6289.7632
333  6541.9407
332  6294.3842
331  6652.7449
330  6432.6742
329  6364.375
328  6302.9459
327  6535.748
326  6579.7757
325  6550.0358
324  6359.3721
323  6641.8108
322  6886.2831
321  6862.3516
320  6906.5304
319  6585.518
318  6536.5752
317  6703.7191
316  6642.1566
315  6642.1245
314  6444.7441
313  6628.6781
312  6154.3557
311  6562.4171
310  6385.4729
309  6467.4577
308  6449.2583
307  6380.9883
306  6100.8742
305  6466.4689
304  6596.1849
303  6721.7852
302  6573.4958
301  6607.9901
300  6363.7009
299  6468.6142
298  6350.0125
297  6261.2584
296  6453.3057
295  6300.6337
294  6496.2356
293  6488.6232
292  6572.3762
291  6290.8393
290  6426.9785
289  6279.2394
288  6250.924
287  6523.1098
286  6788.1803
285  6586.0363
284  6592.4049
283  6562.1321
282  6174.2363
281  6564.4728
280  6333.2073
279  6279.4426
278  6092.5381
277  6010.7079
276  6283.7332
275  6430.8944
274  6261.4548
273  6277.9545
272  6379.5809
271  6439.7689
270  6219.2378
269  6404.7918
268  6520.2741
267  6622.3947
266  6644.2712
265  6469.8609
264  6543.3365
263  6164.2029
262  6511.578
261  6326.9067
260  6559.774
259  6249.5905
258  6351.168
257  6174.9802
256  6009.922
255  6247.1867
254  6351.7141
253  6158.04
252  6312.3883
251  6294.4254
250  5966.0895
249  5911.8443
248  5950.7265
247  6451.9626
246  6918.9415
245  7075.794
244  7198.4554
243  7365.0156
242  6786.7035
241  5980.6962
240  5856.2645
239  6243.6112
238  6164.8638
237  5838.0497
236  5988.276
235  6005.0395
234  6225.4141
233  6200.0679
232  6510.3972
231  6464.2489
230  6166.8656
229  6144.7737
228  6264.6222
227  6327.5441
226  6272.5174
225  5971.7151
224  5812.4714
223  6103.9692
222  5993.7759
221  6097.5444
220  6063.3079
219  5985.6443
218  6139.7194
217  6026.0062
216  5925.4746
215  5787.5272
214  5940.1736
213  6171.9061
212  6094.4357
211  6187.9873
210  6407.8865
209  5979.8115
208  6070.9278
207  6094.2926
206  6142.9174
205  6337.6609
204  6395.5415
203  6321.3465
202  6484.1623
201  6297.8864
200  6533.6523
199  6401.2114
198  6288.8474
197  6419.9898
196  6371.6733
195  6557.5702
194  6624.0039
193  6435.8067
192  6340.6596
191  6282.8374
190  6452.3629
189  6406.271
188  6251.275
187  6562.6175
186  6465.5914
185  6503.4241
184  6373.0726
183  6355.531
182  7247.6184
181  7377.3986
180  7319.4838
179  7790.9188
178  7690.0532
177  7636.4756
176  7329.9465
175  7170.3306
174  6991.9286
173  6466.2072
172  6036.0381
171  5979.0216
170  5811.3886
169  5687.0586
168  5614.0767
167  5338.9668
166  5137.2574
165  5013.0984
164  4896.0738
163  4494.2136
162  4669.7589
161  4837.0915
160  5756.6708
159  7831.1281
158  12827.796
157  21832.658
156  26931.806
155  20819.871
154  12163.626
153  7090.6015
152  5263.3355
151  4970.8013
150  4469.3835
149  4226.7155
148  3960.3342
147  3904.698
146  4058.3258
145  4078.4083
144  4002.9409
143  3915.2918
142  3850.6409
141  3837.3282
140  3542.079
139  3482.9071
138  3469.7889
137  3631.601
136  3729.1541
135  3512.9152
134  3694.893
133  3827.3208
132  3917.4189
131  4191.0875
130  4182.4308
129  4387.3997
128  4609.9485
127  4575.3428
126  4389.3052
125  4248.5939
124  4311.5124
123  4284.1207
122  3739.4622
121  3505.6213
120  3559.6854
119  3026.2456
118  2792.7427
117  2338.7251
116  2280.6969
115  1881.49
114  1750.43
113  1555.7867
112  1465.6202
111  1623.0619
110  1622.7596
109  2056.0507
108  3398.0726
107  8011.5208
106  21168.19
105  29944.924
104  18263.961
103  5843.569
102  2005.9378
101  1296.714
100  1553.5256
99  1087.7452
98  1043.9508
97  969.60885
96  964.94393
95  946.23714
94  1015.5932
93  1013.5919
92  1036.2478
91  1033.9575
90  1026.5533
89  976.33075
88  989.60098
87  1083.6773
86  1006.5981
85  1089.8754
84  1127.7934
83  891.46675
82  989.59434
81  1136.3192
80  1068.5986
79  1078.0548
78  1084.8755
77  962.26414
76  994.87311
75  1078.7416
74  1135.417
73  1071.3883
72  1148.9372
71  1172.6788
70  1198.2129
69  1173.2897
68  961.42679
67  1021.146
66  1159.1272
65  1154.1177
64  1148.9269
63  993.01457
62  1228.8875
61  1203.9761
60  1189.7715
59  1153.9331
58  1335.7667
57  1360.5967
56  1211.7823
55  1294.5825
54  1420.795
53  1452.7567
52  1265.0653
51  1309.0178
50  1379.9523
49  1302.0565
48  1180.5625
47  1192.0968
46  1302.175
45  1246.0215
44  1016.9663
43  1003.7044
42  978.47747
41  1174.9941
40  957.23967
39  979.23816
38  981.18314
37  919.5721
36  1028.5767
35  1092.0569
34  1083.5025
33  1230.8321
32  1315.4468
31  1521.3153
30  1957.4824
29  2839.1699
28  4044.0842
27  4687.4352
26  3688.1721
25  1947.5334
24  960.33604
23  524.79314
22  358.1492
21  214.88894
20  223.95973
19  253.69273
18  395.73176
17  894.59979
16  1227.9426
15  1272.5112
14  1071.9105
13  1066.5025
12  1086.565
11  1249.1
10  1210.3305
9  1006.2705
8  945.74735
7  476.98116
6  243.74101
5  145.31975
4  56.987837
3  26.803185
2  12.299175
1  2.272925
0  8.278525