# Region:            Survey (5)
# Acquisition Date:  11/08/19 21:12:18 UTC
# Analysis Method:   XPS
# Analyzer:          Phoibos
# Analyzer Lens:     MediumArea:1.5kV
# Analyzer Slit:     4:3x20\B:open
# Scan Mode:         FixedAnalyzerTransmission
# Curves/Scan:       1
# Values/Curve:      1301
# Dwell Time:        0.1
# Excitation Energy: 1486.71
# Binding Energy:    1300
# Pass Energy:       50
# Bias Voltage:      90
# Detector Voltage:  1900
# Eff. Workfunction: 4.395
# Source:            Focus
# Comment:           Despues de decapado de otros 10 min
#
# Cycle: 0
# Number of Scans: 2
#
# Cycle: 0, Curve: 0
# Acquisition Date: 11/08/19 21:12:18 UTC
#
# ColumnLabels: energy counts/s
#
1300  12740.877
1299  12647.909
1298  12497.771
1297  12413.851
1296  12430.545
1295  12748.986
1294  12554.076
1293  12811.06
1292  12469.508
1291  12475.354
1290  12323.991
1289  12603.046
1288  12318.37
1287  12043.899
1286  12173.6
1285  12361.07
1284  12085.002
1283  12154.521
1282  12103.109
1281  12053.789
1280  12181.395
1279  12537.886
1278  12482.367
1277  12422.756
1276  12076.884
1275  12054.999
1274  12345.713
1273  12304.013
1272  12206.593
1271  12437.919
1270  12048.956
1269  11440.259
1268  12147.697
1267  12218.352
1266  11828.328
1265  11719.958
1264  12014.113
1263  12347.69
1262  12079.134
1261  11972.569
1260  11917.799
1259  11879.739
1258  11887.57
1257  11705.323
1256  11876.581
1255  11751.546
1254  11944.948
1253  11769.845
1252  12042.15
1251  12100.026
1250  11672.423
1249  11553.076
1248  11865.185
1247  11933.11
1246  11935.762
1245  11968.081
1244  11905.896
1243  11779.854
1242  12014.305
1241  12093.126
1240  12197.833
1239  11816.269
1238  11903.48
1237  12035.364
1236  12104.476
1235  12027.373
1234  11950.379
1233  11856.252
1232  11819.597
1231  11721.04
1230  11679.893
1229  11557.561
1228  11849.242
1227  12052.74
1226  11617.808
1225  11649.603
1224  11731.053
1223  11670.762
1222  11984.345
1221  12244.065
1220  12100.872
1219  11739.327
1218  11762.479
1217  11644.448
1216  11628.476
1215  11611.304
1214  11744.64
1213  11806.216
1212  12169.737
1211  12182.961
1210  12081.331
1209  11537.084
1208  11701.153
1207  11663.496
1206  11761.625
1205  12094.578
1204  11600.395
1203  12126.47
1202  11973.915
1201  12267.74
1200  11612.958
1199  11598.274
1198  11847.895
1197  12196.984
1196  11938.3
1195  11476.73
1194  11760.75
1193  12226.351
1192  11534.665
1191  11564.286
1190  12312.459
1189  12161.149
1188  12216.771
1187  12182.87
1186  12379.809
1185  11903.995
1184  12453.508
1183  12146.073
1182  12284.215
1181  12017.33
1180  11971.02
1179  11703.63
1178  12016.626
1177  12172.281
1176  11400.865
1175  11988.682
1174  12071.208
1173  11862.869
1172  11567.2
1171  11798.765
1170  12032.257
1169  12034.32
1168  11730.427
1167  11693.875
1166  11971.466
1165  12084
1164  11909.691
1163  12103.617
1162  12412.922
1161  12274.586
1160  11948.276
1159  12456.54
1158  12084.229
1157  12200.457
1156  12513.052
1155  12047.503
1154  11801.091
1153  12082.867
1152  11746.082
1151  11860.428
1150  11769.205
1149  11895.181
1148  12420.583
1147  12215.685
1146  11915.465
1145  12153.122
1144  12385.469
1143  11723.508
1142  12212.368
1141  12377.301
1140  12366.29
1139  12427.415
1138  12118.34
1137  12215.145
1136  12042.998
1135  12094.931
1134  12277.852
1133  12437.148
1132  12207.697
1131  12680.886
1130  12392.194
1129  12740.005
1128  12923.632
1127  12776.253
1126  12039.696
1125  12418.974
1124  12067.571
1123  12406.568
1122  12718.508
1121  12750.495
1120  12531.153
1119  12964.474
1118  12693.019
1117  12498.218
1116  12455.081
1115  12580.374
1114  12393.945
1113  12497.745
1112  12555.33
1111  12820.641
1110  12438.424
1109  12855.791
1108  12934.191
1107  12765.452
1106  12582.115
1105  12928.347
1104  12639.403
1103  12623.148
1102  12361.926
1101  12692.919
1100  12508.666
1099  12915.953
1098  12571.968
1097  12726.243
1096  13477.84
1095  13253.083
1094  12746.637
1093  12895.601
1092  12988.321
1091  13228.852
1090  13187.769
1089  13469.785
1088  13110.033
1087  13612.053
1086  13423.142
1085  13168.423
1084  12916.811
1083  12838.85
1082  13400.568
1081  13172.632
1080  12919.153
1079  13369.89
1078  13505.851
1077  13307.19
1076  13268.73
1075  13687.719
1074  13516.111
1073  13404.404
1072  13342.612
1071  13003.267
1070  13517.315
1069  13369.31
1068  13116.288
1067  13666.211
1066  13684.634
1065  13931.927
1064  13884.2
1063  13732.338
1062  13773.582
1061  13971.175
1060  13518.721
1059  13606.334
1058  13999.485
1057  13473.102
1056  13865.093
1055  13854.481
1054  14010.309
1053  14463.382
1052  13935.316
1051  13863.586
1050  14282.488
1049  14013.708
1048  14073.152
1047  14200.931
1046  14166.701
1045  13850.253
1044  14252.032
1043  14283.436
1042  14277.968
1041  14421.452
1040  14724.833
1039  14669.886
1038  14070.251
1037  14266.563
1036  14451.337
1035  14713.682
1034  15176.148
1033  14915.486
1032  15000.92
1031  14519.54
1030  15341.476
1029  15265.246
1028  15538.766
1027  15434.633
1026  15584.585
1025  16094.221
1024  15724.891
1023  15956.749
1022  16256.007
1021  16044.944
1020  16243.582
1019  16569.135
1018  16805.651
1017  16824
1016  16792.534
1015  16291.649
1014  16135.427
1013  16145.904
1012  16236.594
1011  15950.399
1010  15930.429
1009  16855.17
1008  16924.044
1007  17310.325
1006  17943.054
1005  18073.483
1004  18881.156
1003  19784.864
1002  19885.959
1001  19742.722
1000  18587.411
999  17675.519
998  16786.376
997  16163.549
996  16185.147
995  15994.301
994  15998.803
993  15246.716
992  14279.147
991  14693.181
990  15482.599
989  15764.559
988  15654.99
987  15965.914
986  16933.392
985  19270.736
984  21321.336
983  22995.418
982  25712.197
981  27221.377
980  27410.042
979  24733.683
978  20858.781
977  18161.597
976  16216.6
975  14273.51
974  12926.275
973  11912.433
972  10834.238
971  10282.007
970  8966.054
969  8246.1847
968  7708.6453
967  6962.7311
966  7046.5962
965  7034.8326
964  6577.7819
963  6695.2945
962  6695.4854
961  6546.2688
960  6723.2832
959  6747.7602
958  6690.2104
957  6485.4399
956  6590.4119
955  6583.2051
954  6519.0666
953  6494.9416
952  6644.3132
951  6495.0214
950  6488.3302
949  6609.0345
948  6359.0945
947  6341.9269
946  6511.343
945  6611.4992
944  6632.4761
943  6739.6254
942  6464.6897
941  6802.2104
940  6575.5069
939  6529.7175
938  6559.5403
937  6529.24
936  6848.5348
935  6925.8531
934  6987.0571
933  6794.813
932  6718.6186
931  6720.7243
930  6996.998
929  7082.2301
928  7199.9794
927  6995.547
926  6655.1194
925  6796.5939
924  6842.0793
923  6822.8027
922  7032.9323
921  6997.7959
920  6704.7508
919  6913.7685
918  6977.4332
917  7128.1812
916  7002.0389
915  7005.3839
914  7058.3036
913  7193.6366
912  7002.1494
911  7213.471
910  7161.0812
909  7028.8256
908  7023.3317
907  6818.4877
906  6902.1882
905  6928.3939
904  7139.2271
903  7079.9443
902  7098.4902
901  7262.0481
900  7515.574
899  7549.1136
898  7467.7485
897  7368.8136
896  6955.8565
895  7287.2105
894  7463.0195
893  7241.4055
892  7304.5667
891  7160.0578
890  7344.4941
889  7409.6953
888  7282.0264
887  7361.1401
886  7182.1744
885  7266.851
884  7435.7848
883  7403.6527
882  7189.1601
881  7374.8754
880  7519.6818
879  7412.477
878  7252.8569
877  7567.8061
876  7271.7118
875  7344.4959
874  7410.7142
873  7242.9285
872  7380.8682
871  7244.4303
870  7664.4115
869  7651.6328
868  7770.2557
867  7637.6941
866  7657.366
865  8022.1347
864  8009.2332
863  7894.8278
862  7758.2553
861  8167.551
860  8153.0552
859  7728.5278
858  7966.1738
857  7814.5293
856  7808.014
855  7428.4781
854  7502.1702
853  7924.289
852  8165.4976
851  7928.2079
850  8139.5985
849  7747.7489
848  8098.4625
847  8358.711
846  8095.3624
845  7974.467
844  8073.2726
843  8498.7838
842  7884.7949
841  7917.9931
840  7927.2594
839  8228.6316
838  8244.4797
837  8219.2007
836  8015.1447
835  7814.72
834  8156.0482
833  8260.178
832  8022.9124
831  8355.5824
830  8169.4729
829  8184.5876
828  8190.7988
827  8906.865
826  8686.9621
825  8887.6952
824  8769.5572
823  8440.4091
822  8251.4092
821  8612.8621
820  8851.6312
819  8948.8522
818  9026.0105
817  8778.4195
816  8264.4146
815  8616.819
814  8549.3491
813  8819.7852
812  9040.5863
811  8662.1289
810  8482.6972
809  8418.9782
808  8484.0727
807  8675.367
806  8691.2854
805  8786.0001
804  8843.5413
803  8785.3174
802  8878.1291
801  8784.4432
800  8541.7468
799  8716.5832
798  8665.5778
797  8786.5701
796  8765.8353
795  8878.2637
794  9132.8573
793  8924.94
792  8634.1933
791  8949.9854
790  9174.5227
789  9218.5588
788  9335.2593
787  9327.5603
786  8922.5167
785  9153.3508
784  9182.4351
783  9381.0837
782  9210.7741
781  9224.8281
780  9033.3273
779  9562.1476
778  9222.9701
777  9061.781
776  9126.3923
775  9441.7922
774  9487.9592
773  9332.3684
772  9666.7399
771  9716.874
770  9396.1267
769  9560.6605
768  9496.3671
767  10063.805
766  9791.4818
765  9644.1696
764  9500.2063
763  9742.9391
762  9550.3821
761  9698.1307
760  9827.8947
759  9850.9287
758  9731.9229
757  9619.2337
756  9672.4546
755  10046.007
754  10119.155
753  9755.9167
752  9550.126
751  10089.997
750  9968.3226
749  10180.612
748  9949.0361
747  9570.7109
746  9917.0421
745  10035.41
744  9795.2873
743  10026.864
742  9777.9304
741  10075.047
740  10039.854
739  10359.711
738  10257.129
737  10118.994
736  10069.284
735  10120.157
734  10346.448
733  9991.1211
732  10330.188
731  10220.476
730  10420.844
729  10448.25
728  10603.895
727  10557.76
726  10761.042
725  10496.163
724  10520.669
723  10175.492
722  10380.854
721  10763.467
720  10609.443
719  10837.051
718  10886.306
717  10570.398
716  10966.96
715  11125.577
714  10811.171
713  10602.857
712  10688.337
711  11006.491
710  11005.547
709  10651.506
708  10715.613
707  10437.625
706  10820.594
705  11091.796
704  10927.384
703  11007.06
702  11153.747
701  11000.267
700  11201.79
699  11463.977
698  11045.552
697  11248.514
696  11031.311
695  11118.127
694  11266.579
693  11513.492
692  11377.488
691  11505.75
690  11502.562
689  11926.894
688  11318.62
687  11561.872
686  11585.317
685  11550.952
684  11667.539
683  11866.566
682  11481.918
681  11787.211
680  12038.172
679  11922.194
678  11742.776
677  11867.974
676  11362.934
675  11705.515
674  11971.115
673  12032.475
672  11835.126
671  12164.711
670  11875.06
669  11845.895
668  12060.434
667  12496.702
666  12692.078
665  12549.562
664  12368.245
663  12298.321
662  12512.584
661  12671.433
660  12605.22
659  12814.003
658  12683.272
657  12853.964
656  12688.382
655  12655.629
654  13037.317
653  12886.456
652  13031.377
651  12792.693
650  13310.423
649  13505.62
648  13023.374
647  12982.481
646  13228.739
645  13306.154
644  13228.723
643  13280.749
642  13227.532
641  13465.979
640  13437.048
639  13727.526
638  13691.858
637  13669.61
636  13303.174
635  13430.785
634  13654.839
633  13790.739
632  13394.617
631  13443.868
630  14115.156
629  14086.916
628  14113.082
627  14584.072
626  14353.542
625  14618.176
624  14275.714
623  14218.261
622  14155.254
621  14076.814
620  13876.887
619  14540.126
618  14654.995
617  14389.748
616  14868.493
615  15320.664
614  14910.055
613  15429.218
612  15144.363
611  15313.139
610  15296.927
609  15310.929
608  15417.798
607  15507.566
606  15447.723
605  15713.596
604  15504.836
603  16133.97
602  16025.143
601  15458.161
600  15937.802
599  15504.733
598  15262.079
597  15735.311
596  15770.464
595  16110.957
594  16132.311
593  16612.926
592  16289.351
591  16109.586
590  16408.142
589  16617.336
588  16864.575
587  16482.221
586  16727.778
585  17152.95
584  17356.61
583  17213.999
582  17008.638
581  17205.03
580  17413.582
579  17529.542
578  17144.283
577  17263.399
576  16694.888
575  17598.016
574  17421.707
573  17163.592
572  17260.672
571  17875.603
570  17576.318
569  17158.578
568  16397.787
567  16667.671
566  17211.427
565  17206.246
564  17610.347
563  18379.315
562  19037.549
561  19997.447
560  20604.98
559  20771.329
558  21484.729
557  21671.817
556  22078.14
555  21261.531
554  20581.89
553  19285.559
552  17976.873
551  17315.22
550  16612.591
549  16281.239
548  15306.138
547  14136.607
546  13618.615
545  12968.447
544  11994.671
543  10880.145
542  10453.33
541  10388.375
540  9694.9063
539  9236.2137
538  9753.4269
537  10709.123
536  16396.842
535  46961.404
534  122507.53
533  116510.36
532  37077.238
531  12640.845
530  8936.6738
529  7786.4833
528  7668.5374
527  7439.5965
526  7408.2725
525  7602.1047
524  7347.6009
523  7540.2191
522  7310.6538
521  7255.7245
520  7234.4066
519  7524.2781
518  7030.637
517  7134.4854
516  7350.8888
515  7164.2003
514  7163.0593
513  7232.4343
512  7425.8665
511  7064.708
510  7358.9409
509  7252.7999
508  7387.7954
507  7209.0619
506  6999.7651
505  7167.9414
504  7401.4054
503  7333.2881
502  7308.9667
501  7481.2277
500  7779.8892
499  7430.3595
498  7381.6344
497  7171.2398
496  7306.5466
495  7527.8312
494  7283.4064
493  7274.2467
492  7292.36
491  7369.767
490  7277.2102
489  7414.8359
488  7368.1546
487  7635.3741
486  7462.3374
485  7382.7869
484  7280.7593
483  7391.6899
482  7316.6026
481  7406.4869
480  7618.3742
479  7603.9657
478  7263.5214
477  7618.6857
476  7468.1994
475  7246.4115
474  7504.596
473  7235.9756
472  7316.8861
471  7521.3043
470  7295.321
469  7257.9483
468  7383.2626
467  7356.0825
466  7509.5492
465  7723.5709
464  7543.1821
463  7483.7845
462  7386.2542
461  7483.2728
460  7519.8619
459  7497.5905
458  7606.3775
457  7523.0932
456  7444.9059
455  7504.4394
454  7703.769
453  7564.1991
452  7621.3741
451  7555.1832
450  7624.1734
449  7741.9776
448  7824.6039
447  7963.3535
446  7642.3017
445  7671.803
444  7515.8607
443  7776.6708
442  7609.9861
441  7312.3207
440  7525.3539
439  7452.5894
438  7705.1771
437  7885.0332
436  7805.1985
435  7892.0263
434  7740.8799
433  7690.3764
432  7818.8595
431  7643.2421
430  7752.2493
429  7833.1518
428  8134.0935
427  8002.6947
426  7780.5507
425  7945.0435
424  7994.6878
423  7800.4911
422  7913.8393
421  7809.3921
420  8054.1064
419  7699.1456
418  7856.2034
417  7959.4818
416  7903.5054
415  8040.2533
414  8004.6921
413  7738.5428
412  7927.7961
411  8066.4494
410  7670.3456
409  7917.8618
408  7962.4712
407  7904.7437
406  7717.451
405  7809.5018
404  7777.2948
403  8016.5392
402  7977.0372
401  7998.746
400  8177.8621
399  8549.1427
398  8310.226
397  8339.4893
396  7935.2027
395  8161.8887
394  8119.7753
393  8162.1605
392  8164.7104
391  7749.5568
390  7775.7152
389  7906.5822
388  8120.4744
387  8088.1443
386  8256.4531
385  7937.8903
384  7828.7079
383  8035.3936
382  8418.7443
381  8138.6078
380  8177.6516
379  8087.2971
378  8120.4412
377  7768.5451
376  8079.9722
375  7883.4569
374  8398.893
373  8051.2239
372  8216.897
371  8200.4912
370  8288.2257
369  8234.165
368  8639.6595
367  8417.1642
366  8230.1371
365  8317.3675
364  8503.3811
363  8428.296
362  8549.7326
361  8068.9133
360  7742.6716
359  8029.8612
358  8395.5588
357  8489.2098
356  8472.1792
355  8496.5887
354  8498.8031
353  8218.3592
352  8370.1111
351  8143.52
350  8701.2168
349  8596.6913
348  8509.4763
347  8165.7538
346  8206.8412
345  8431.0898
344  8190.104
343  8285.3976
342  8301.0492
341  8524.2001
340  8398.5708
339  8171.1716
338  8313.2272
337  8637.9228
336  8609.2538
335  8671.9667
334  8457.1831
333  8517.6824
332  8177.4364
331  8125.1698
330  8361.1149
329  8524.0003
328  8477.4883
327  8381.8406
326  8134.4161
325  8350.2504
324  8354.7567
323  8644.1892
322  8671.3541
321  8997.3087
320  9116.8573
319  8935.0761
318  8924.0312
317  8441.2663
316  8418.1235
315  8463.1646
314  8601.3697
313  8660.4235
312  8477.6761
311  8382.8253
310  8714.4199
309  8601.1507
308  8792.7592
307  8184.095
306  8435.8193
305  8973.0302
304  8788.5198
303  8722.2937
302  8917.996
301  8441.2011
300  8391.2202
299  8502.2108
298  8543.9759
297  8580.6268
296  8545.1256
295  8445.1287
294  8894.6663
293  8506.6165
292  8782.2667
291  8896.7193
290  8417.588
289  8766.0873
288  8820.7279
287  8762.1942
286  8807.7075
285  8920.3135
284  8507.1785
283  8819.532
282  8652.4078
281  8597.2672
280  8676.2369
279  8708.2796
278  8451.8709
277  8563.5033
276  8750.1065
275  8797.9019
274  9091.0388
273  8654.3656
272  8840.4501
271  8613.407
270  8717.9396
269  8483.6688
268  8604.443
267  8311.0712
266  8843.5532
265  8792.1787
264  8969.8887
263  8808.1585
262  9020.2677
261  8929.6959
260  8733.396
259  8736.0874
258  8908.7346
257  8859.6722
256  8546.1767
255  8807.2786
254  8543.4131
253  8570.1552
252  8737.2479
251  8450.3888
250  8779.4024
249  8483.7055
248  8569.8044
247  8907.5734
246  8965.593
245  9516.785
244  9413.1893
243  9704.0707
242  9576.7343
241  8868.3234
240  8737.2473
239  8561.2677
238  8585.4677
237  8647.9414
236  9154.7809
235  8792.0423
234  8519.8658
233  8688.3708
232  8560.8896
231  8750.1805
230  8678.7642
229  8638.255
228  8841.3126
227  8783.6191
226  8624.626
225  8604.3496
224  8514.3341
223  8679.3385
222  8643.6877
221  8628.848
220  8361.1533
219  8217.2245
218  8776.295
217  8586.5068
216  8326.1856
215  8680.8667
214  8717.8243
213  8520.3635
212  8608.6563
211  8803.9624
210  8872.628
209  8677.0903
208  8655.8711
207  8802.4802
206  8711.3465
205  8681.3214
204  8628.5161
203  8655.6212
202  8467.2409
201  8400.7163
200  8712.9275
199  8571.1288
198  8589.5606
197  8695.1907
196  8727.7845
195  8496.6256
194  8327.0766
193  8406.2611
192  8536.5524
191  8547.7014
190  8646.7966
189  8487.4244
188  8749.3645
187  8525.6357
186  8548.463
185  8421.7673
184  8409.4762
183  8481.8575
182  8569.3241
181  8805.9229
180  8762.542
179  8763.319
178  9101.8384
177  9048.8492
176  8893.4709
175  8931.5355
174  8613.5054
173  8507.8182
172  8631.2793
171  8416.6137
170  8035.8366
169  8047.5443
168  8075.7645
167  8082.3831
166  7365.7065
165  6926.6902
164  6739.7985
163  6340.0636
162  6318.3821
161  6250.6263
160  6539.5462
159  6948.0806
158  8816.1625
157  13639.566
156  22133.785
155  26005.008
154  19132.623
153  11575.528
152  9092.1195
151  9148.0483
150  7675.1604
149  5895.2145
148  5109.6674
147  5090.8665
146  4951.5155
145  4607.4873
144  4784.8268
143  4802.0804
142  4734.0889
141  4458.1357
140  4236.2561
139  4625.8011
138  4485.0028
137  4440.9372
136  4501.1306
135  4438.8111
134  4435.988
133  4297.7422
132  4612.5318
131  4478.0083
130  4638.9045
129  4893.6678
128  4617.7674
127  4418.3519
126  4618.2223
125  4834.0834
124  4615.5798
123  4566.029
122  4445.9271
121  4502.6904
120  4246.4333
119  4043.5476
118  3904.5087
117  3743.2173
116  3700.1857
115  3028.1621
114  2542.4442
113  2307.9954
112  2111.9867
111  2018.4464
110  1962.6939
109  1654.2261
108  1756.9327
107  2580.5892
106  7261.7432
105  20008.538
104  26056.433
103  14498.812
102  5417.7256
101  3005.5657
100  4633.3563
99  4377.0468
98  1363.4207
97  801.30219
96  824.22915
95  869.45937
94  751.89038
93  841.52594
92  863.89682
91  842.24428
90  840.75705
89  814.17228
88  893.32182
87  845.44299
86  838.39317
85  826.50883
84  795.00514
83  871.1022
82  829.9205
81  885.14736
80  964.5929
79  806.71785
78  845.57192
77  879.6739
76  865.70994
75  924.26557
74  933.74172
73  888.37272
72  995.12657
71  894.10547
70  927.88966
69  900.83878
68  870.41313
67  921.45646
66  953.61249
65  1049.1001
64  879.84856
63  934.93138
62  957.01633
61  985.50509
60  1066.4474
59  1053.0341
58  1030.2311
57  959.35334
56  1058.8989
55  1031.6599
54  1042.0908
53  1159.032
52  1189.591
51  1068.21
50  1244.1938
49  1195.7261
48  1122.6731
47  1068.7489
46  1154.0266
45  1072.5263
44  1025.9911
43  1024.3903
42  959.80238
41  1062.4001
40  867.46951
39  877.72532
38  834.78333
37  911.88868
36  905.37682
35  865.4764
34  996.22616
33  1023.0621
32  1104.9993
31  1309.7193
30  1520.6248
29  1763.7544
28  2751.0665
27  3836.9157
26  3760.9285
25  2970.9238
24  1563.3982
23  860.84261
22  493.86632
21  405.42064
20  321.29612
19  275.72327
18  240.88219
17  392.13682
16  874.71753
15  1060.6584
14  1104.611
13  1014.4822
12  1029.8186
11  1049.3637
10  1070.0067
9  1177.8689
8  1087.5026
7  869.44452
6  450.62839
5  304.8889
4  274.64557
3  193.63799
2  162.8991
1  42.036715
0  14.964375