# Region:            Survey (3)
# Acquisition Date:  11/08/19 20:39:32 UTC
# Analysis Method:   XPS
# Analyzer:          Phoibos
# Analyzer Lens:     MediumArea:1.5kV
# Analyzer Slit:     4:3x20\B:open
# Scan Mode:         FixedAnalyzerTransmission
# Curves/Scan:       1
# Values/Curve:      1301
# Dwell Time:        0.1
# Excitation Energy: 1486.71
# Binding Energy:    1300
# Pass Energy:       50
# Bias Voltage:      90
# Detector Voltage:  1900
# Eff. Workfunction: 4.395
# Source:            Focus
# Comment:           Despues de decapado 5 min
#
# Cycle: 0
# Number of Scans: 2
#
# Cycle: 0, Curve: 0
# Acquisition Date: 11/08/19 20:39:32 UTC
#
# ColumnLabels: energy counts/s
#
1300  14004.68
1299  13331.025
1298  13606.851
1297  13832.718
1296  13912.927
1295  13539.616
1294  13247.379
1293  13464.943
1292  13260.806
1291  13728.537
1290  13493.375
1289  13278.335
1288  13475.418
1287  13513.696
1286  13387.356
1285  13272.866
1284  12840.028
1283  13397.309
1282  13296.92
1281  13735.361
1280  13150.469
1279  13070.866
1278  13095.433
1277  13420.388
1276  13279.713
1275  13029.077
1274  13368.679
1273  13105.364
1272  13420.527
1271  13668.351
1270  13124.722
1269  13302.905
1268  13252.293
1267  12778.518
1266  12791.522
1265  13324.988
1264  13298.553
1263  13054.201
1262  12759.073
1261  13200.853
1260  12856.681
1259  13405.756
1258  13439.436
1257  13150.293
1256  13356.92
1255  12955.006
1254  13293.89
1253  13369.283
1252  13265.439
1251  13382.01
1250  13283.418
1249  12909.055
1248  12933.716
1247  13303.116
1246  12704.614
1245  12881.392
1244  12688.447
1243  12929.304
1242  12927.356
1241  12998.898
1240  12949.163
1239  12993.921
1238  12786.057
1237  12541.811
1236  13321.897
1235  12971.043
1234  13388.237
1233  13102.898
1232  12671.112
1231  13283.617
1230  14125.107
1229  13439.028
1228  13000.858
1227  12859.499
1226  12891.328
1225  13322.086
1224  13372.731
1223  12861.837
1222  13170.491
1221  13174.492
1220  13492.172
1219  13397.713
1218  13099.561
1217  13194.525
1216  13000.607
1215  13072.996
1214  13473.065
1213  13066.493
1212  13022.491
1211  13253.397
1210  12949.574
1209  12631.165
1208  12941.085
1207  13251.277
1206  12998.834
1205  13011.056
1204  13086.32
1203  13118.442
1202  13437.735
1201  13111.93
1200  13097.088
1199  13299.9
1198  13097.245
1197  12729.706
1196  12675.909
1195  13108.111
1194  13499.945
1193  13064.641
1192  12912.834
1191  12981.943
1190  13173.995
1189  12897.139
1188  12936.641
1187  13069.684
1186  13212.993
1185  13386.945
1184  12950.199
1183  12834.412
1182  12763.864
1181  13125.457
1180  13184.561
1179  13494.296
1178  13386.42
1177  13186.397
1176  13123.188
1175  13282.431
1174  13019.158
1173  13231.761
1172  12972.274
1171  13334.224
1170  13323.915
1169  12910.252
1168  13186.78
1167  13268.359
1166  13607.875
1165  13569.845
1164  12980.93
1163  13077.326
1162  12447.315
1161  12991.931
1160  13242.768
1159  13520.044
1158  13338.362
1157  13540.115
1156  13209.498
1155  12770.427
1154  13360.864
1153  13479.235
1152  13621.373
1151  13157.618
1150  13133.392
1149  13273.107
1148  13480.225
1147  13535.431
1146  13390.022
1145  13347.006
1144  13566.595
1143  13325.459
1142  13282.901
1141  13269.117
1140  13286.25
1139  13991.499
1138  13721.621
1137  13765.956
1136  13636.64
1135  13754.508
1134  13705.374
1133  13464.456
1132  13749.961
1131  13753.223
1130  13430.278
1129  13272.628
1128  13160.065
1127  13526.343
1126  13410.009
1125  13534.656
1124  13396.167
1123  13336.873
1122  13641.81
1121  13727.101
1120  13680.205
1119  13332.672
1118  13461.077
1117  13675.318
1116  13441.313
1115  13762.583
1114  13437.927
1113  13980.42
1112  13584.846
1111  13606.621
1110  13841.36
1109  14317.672
1108  13922.752
1107  13985.349
1106  13920.7
1105  14176.3
1104  13931.266
1103  13889.329
1102  14047.931
1101  13999.927
1100  13748.587
1099  13655.523
1098  13843.497
1097  13925.355
1096  14048.93
1095  14012.373
1094  13915.105
1093  14334.413
1092  14277.754
1091  13970.142
1090  14333.532
1089  14604.822
1088  14406.591
1087  13977.372
1086  13959.321
1085  13799.615
1084  13762.083
1083  13627.366
1082  14077.661
1081  14230.956
1080  14470.98
1079  14798.053
1078  14145.503
1077  13918.197
1076  14330.362
1075  14548.623
1074  14349.711
1073  14658.9
1072  14491.533
1071  14094.661
1070  14398.163
1069  14648.157
1068  14943.327
1067  14376.733
1066  14482.387
1065  14602.022
1064  14643.896
1063  14470.211
1062  14717.869
1061  14939.65
1060  14824.234
1059  14429.202
1058  14837.735
1057  15075
1056  15137.982
1055  14812.53
1054  15057.524
1053  14893.135
1052  15178.931
1051  15882.282
1050  15435.636
1049  15483.289
1048  15436.627
1047  15316.963
1046  15423.548
1045  15504.241
1044  15389.972
1043  15407.985
1042  15722.657
1041  15810.226
1040  15828.079
1039  15978.048
1038  15703.303
1037  15683.873
1036  15552.141
1035  15665.683
1034  15618.623
1033  15997.229
1032  16381.642
1031  16565.382
1030  16532.843
1029  16496.717
1028  16277.909
1027  16232.46
1026  16426.073
1025  16556.039
1024  16760.278
1023  16691.849
1022  17029.307
1021  17527.844
1020  17424.602
1019  17513.375
1018  18353.625
1017  17940.952
1016  17466.424
1015  16893.681
1014  16413.209
1013  16577.011
1012  16802.135
1011  16398.658
1010  16934.602
1009  17671.138
1008  18189.286
1007  18884.562
1006  19198.688
1005  19833.56
1004  20618.828
1003  20660.512
1002  21064.422
1001  20148.177
1000  19840.093
999  18429.38
998  17839.797
997  17426.537
996  17212.583
995  16300.432
994  15462.364
993  15464.849
992  15341.449
991  15459.33
990  16168.381
989  17016.702
988  16899.177
987  17187.443
986  19071.456
985  21746.189
984  22981.943
983  25147.358
982  27661.524
981  29455.156
980  27356.171
979  23613.402
978  20051.418
977  17706.221
976  16861.713
975  14723.315
974  13263.551
973  12132.097
972  11234.791
971  10096.18
970  9179.9496
969  8441.9846
968  7683.5809
967  7314.6821
966  7546.4009
965  7460.6126
964  7508.4676
963  7291.9068
962  7348.6676
961  7233.1288
960  7305.5706
959  7446.1784
958  7428.5987
957  7584.6903
956  7403.9235
955  7321.9872
954  6958.2111
953  6994.2354
952  7306.1408
951  7307.4915
950  7326.6101
949  7701.9129
948  7404.3417
947  7288.9586
946  7441.1557
945  7171.8786
944  7387.5762
943  7748.8848
942  7491.178
941  7394.0772
940  7394.9564
939  7335.9944
938  7342.2306
937  7386.8879
936  7290.202
935  7346.5209
934  7539.3933
933  7257.8199
932  7413.5618
931  7363.3112
930  7757.9954
929  7873.0672
928  7554.1892
927  7561.3132
926  7688.4505
925  7577.8002
924  7596.2427
923  7965.6018
922  8043.507
921  7745.5599
920  7777.6037
919  7983.8418
918  7728.9491
917  7664.2828
916  7782.756
915  7883.696
914  8081.4737
913  8041.7005
912  7826.1299
911  7540.7352
910  8018.2656
909  7625.0024
908  7951.4378
907  7949.82
906  8014.5026
905  7642.9563
904  8038.4996
903  7821.498
902  7888.4378
901  7870.6733
900  8131.549
899  8447.6082
898  8108.3549
897  8032.5894
896  8098.8011
895  8262.051
894  8260.5535
893  8361.1939
892  8092.7334
891  7999.2474
890  8068.6328
889  8112.1612
888  8191.8726
887  8305.7081
886  8444.2479
885  8095.9626
884  8103.1999
883  7956.7227
882  8204.0035
881  8360.0651
880  8136.1564
879  8481.3981
878  8859.4
877  8805.3953
876  8529.3298
875  8662.5326
874  8479.9833
873  8463.3925
872  8518.9935
871  8286.989
870  8631.3526
869  8602.8904
868  8611.91
867  8606.319
866  8737.2355
865  8782.2135
864  9005.4593
863  8745.4763
862  8690.3197
861  8729.848
860  8700.2972
859  8788.6768
858  8832.0564
857  8740.8167
856  8630.7761
855  8738.3489
854  8983.5534
853  9121.496
852  8902.6606
851  8809.0517
850  9042.7095
849  9075.1686
848  9044.8026
847  9170.8841
846  9285.3115
845  8983.5294
844  9143.9363
843  9105.79
842  9440.8386
841  8710.6778
840  8931.6282
839  9280.0763
838  9147.2888
837  9199.3145
836  9415.8095
835  9303.5633
834  9530.789
833  9298.3902
832  9027.3208
831  9364.5167
830  9478.2432
829  9278.3375
828  9549.8494
827  9539.8549
826  9459.9434
825  9441.9011
824  9210.6273
823  9659.4713
822  9588.2521
821  9511.6998
820  9456.3073
819  9637.4213
818  9705.9293
817  9575.7251
816  9526.8237
815  9567.4609
814  9966.7133
813  9751.8047
812  9803.832
811  10089.014
810  9730.0944
809  9504.8405
808  9856.4981
807  9793.6818
806  9866.3314
805  9776.2494
804  9903.1634
803  9848.9401
802  10047.009
801  10009.502
800  10209.04
799  10178.166
798  9919.9048
797  10178.581
796  9791.5731
795  10066.863
794  10041.301
793  10234.848
792  10404.797
791  10167.077
790  10402.601
789  10345.445
788  10252.626
787  10397.411
786  10325.148
785  10257.662
784  10423.527
783  10381.755
782  10194.158
781  10470.366
780  10455.824
779  10679.027
778  10418.333
777  10435.692
776  10363.36
775  10465.628
774  10549.856
773  10364.34
772  10462.224
771  10544.246
770  10868.391
769  10826.052
768  10710.308
767  10652.981
766  10347.674
765  10653.491
764  10978.312
763  10839.139
762  10860.139
761  10967.216
760  11030.576
759  10914.085
758  11226.812
757  10960.781
756  11080.296
755  10728.39
754  11057.766
753  11242.153
752  11367.867
751  10847.69
750  11255.433
749  10869.884
748  11126.149
747  11368.165
746  10716.892
745  11047.925
744  11113.156
743  11534.851
742  11267.094
741  11266.228
740  11462.275
739  11592.817
738  11888.701
737  11660.115
736  11402.906
735  11946.657
734  11653.564
733  11752.157
732  11680.335
731  11768.187
730  12036.111
729  11801.825
728  11821.103
727  11533.025
726  11575.961
725  11773.71
724  12275.084
723  12169.582
722  11830.387
721  11986.503
720  12056.776
719  11423.665
718  11734.842
717  12072.463
716  11963.278
715  12121.956
714  12119.205
713  12423.392
712  12011.874
711  12784.65
710  12487.123
709  12231.478
708  12149.103
707  12638.73
706  12452.319
705  12007.685
704  12370.314
703  12216.161
702  12233.826
701  12362.235
700  12643.746
699  12637.801
698  12577.442
697  12514.093
696  12573.609
695  13090.711
694  13106.906
693  13154.373
692  13099.186
691  12844.719
690  12531.824
689  12447.121
688  12806.28
687  12980.836
686  13163.97
685  13009.942
684  13173.487
683  13474.603
682  13037.921
681  13197.963
680  13373.984
679  13119.527
678  13210.914
677  13373.611
676  13426.93
675  13427.477
674  13257.133
673  13507.089
672  13884.451
671  13391.48
670  13427.181
669  13178.134
668  13347.538
667  13708.058
666  13440.708
665  13928.814
664  14166.592
663  13882.881
662  13972.845
661  14256.139
660  13977.727
659  14222.178
658  14579.502
657  14252.219
656  14213.433
655  14244.465
654  14470.144
653  14670.287
652  14573.672
651  14112.61
650  14118.497
649  14134.211
648  14212.282
647  14571.783
646  14727.325
645  14419.135
644  14523.252
643  14786.562
642  14623.046
641  14856.886
640  15166.887
639  14798.019
638  15081.858
637  15299.649
636  15537.231
635  14814.45
634  15287.63
633  15272.882
632  15124.908
631  15383.295
630  15285.57
629  15458.117
628  15592.957
627  15379.371
626  15492.196
625  15820.355
624  15581.772
623  16112.151
622  16159.801
621  16436.357
620  15895.376
619  16393.402
618  16369.541
617  16346.139
616  16153.017
615  16081.115
614  16492.036
613  16666.616
612  16502.547
611  16350.942
610  16463.228
609  16848.495
608  16709.657
607  16684.501
606  16863.339
605  16996.905
604  16774.938
603  16500.716
602  17109.455
601  17051.382
600  17263.759
599  16982.422
598  17544.538
597  17428.683
596  17247.012
595  17046.243
594  17771.76
593  17603.17
592  17416.947
591  17393.108
590  17563.978
589  17916.797
588  17879.331
587  18319.126
586  18282.732
585  17948.432
584  18316.791
583  18503.274
582  18558.83
581  18276.314
580  17944.912
579  18644.054
578  18104.725
577  17714.743
576  18398.559
575  18806.215
574  18332.32
573  18628.753
572  18814.03
571  17656.322
570  17753.994
569  17259.185
568  17540.157
567  17712.383
566  17764.43
565  18303.057
564  18766.384
563  19767.64
562  20301.579
561  20673.325
560  21396.999
559  22592.982
558  22994.738
557  23499.086
556  23817.126
555  22121.429
554  20487.359
553  19382.468
552  18214.042
551  16975.611
550  16701.015
549  15610.212
548  14807.262
547  13861.374
546  13162.652
545  12302.41
544  11526.817
543  10599.163
542  9976.9128
541  9401.0999
540  9384.9944
539  9098.9794
538  9748.1182
537  12370.782
536  26328.035
535  83213.132
534  141634.51
533  78527.611
532  20389.652
531  9755.6225
530  7944.0572
529  7295.929
528  7117.1302
527  6923.0764
526  6791.8328
525  6867.8715
524  7121.1088
523  6820.7638
522  6659.4096
521  6812.2583
520  7213.0771
519  6983.5019
518  6537.1919
517  6716.0218
516  6911.8496
515  6751.8103
514  6839.7012
513  6957.6259
512  6867.1057
511  6578.8295
510  6688.271
509  6818.3332
508  7086.0361
507  6821.3087
506  7155.4268
505  7462.9443
504  6905.5211
503  6923.8199
502  6883.783
501  6953.2437
500  7090.3155
499  7173.6071
498  6909.5169
497  6878.8441
496  6741.8561
495  7261.0919
494  7090.8679
493  6911.4162
492  6753.5356
491  7090.0739
490  7107.9257
489  7152.5171
488  6965.4039
487  6976.4909
486  6865.0362
485  6813.1936
484  7186.1705
483  6814.8767
482  7038.232
481  6898.4309
480  7456.1314
479  7133.2139
478  7131.7014
477  7149.9682
476  7295.5036
475  6975.5454
474  7046.4492
473  6900.0568
472  6996.4301
471  7007.6412
470  7107.3336
469  7063.8672
468  7145.5948
467  6740.8892
466  7028.1811
465  7396.7374
464  7436.1788
463  7200.4357
462  7302.1291
461  7080.0858
460  7224.4838
459  7236.9472
458  7369.2997
457  7535.2316
456  7172.3466
455  7047.7478
454  7073.1159
453  7215.5245
452  7304.6914
451  7180.1144
450  7370.3246
449  7224.8402
448  7675.3556
447  7511.6455
446  7283.9825
445  7315.011
444  7359.0745
443  7415.7963
442  7352.936
441  7252.9941
440  7504.9181
439  7250.6857
438  7112.0851
437  7145.0609
436  7430.0706
435  7362.7428
434  7557.4656
433  7522.6296
432  7465.4397
431  7433.5786
430  7172.0679
429  7405.4205
428  7223.8188
427  7345.9072
426  7314.6557
425  7207.6393
424  7232.5481
423  7379.6953
422  7510.081
421  7595.747
420  7443.8789
419  7359.3734
418  7413.8643
417  7432.4922
416  7134.8901
415  7362.9272
414  7498.9372
413  7768.5258
412  7410.3258
411  7410.2991
410  7669.2764
409  7818.3438
408  7699.4909
407  7653.3603
406  7365.1316
405  7465.681
404  7727.2865
403  7511.2956
402  7689.368
401  7907.6132
400  8012.7314
399  8205.7852
398  7653.2766
397  7577.9919
396  7728.203
395  7544.7946
394  7621.2838
393  7565.4336
392  7509.1098
391  7433.1327
390  7472.2496
389  7608.4402
388  7654.6778
387  7530.5062
386  7678.1117
385  7823.4918
384  7670.5046
383  7579.0918
382  7665.0175
381  7661.8587
380  7844.8056
379  7740.2316
378  7560.054
377  7565.7266
376  7716.3019
375  7372.9756
374  7617.5598
373  7615.2148
372  7709.382
371  7653.7106
370  7957.4427
369  7680.763
368  7629.5068
367  7785.3614
366  7877.7444
365  7868.4849
364  7947.3947
363  7997.9278
362  7789.9263
361  7729.6987
360  8152.0926
359  7962.124
358  7979.749
357  7849.2892
356  7825.1942
355  7878.6461
354  8015.8314
353  7637.7024
352  7629.5182
351  7925.0934
350  7996.2957
349  8001.4509
348  8194.4248
347  7936.5163
346  7730.5785
345  7900.4856
344  7818.5978
343  7889.2304
342  7734.2565
341  7764.5471
340  7892.4972
339  7883.4243
338  7875.7013
337  7689.6651
336  7585.6997
335  7698.0172
334  7611.2161
333  7831.2046
332  7483.2161
331  7882.7426
330  8055.4149
329  7914.5466
328  7574.5653
327  7749.5673
326  7576.0374
325  7704.4932
324  7913.0949
323  7788.6117
322  8198.9228
321  8431.4543
320  8162.2886
319  8073.5085
318  7910.6824
317  7955.7759
316  7935.8573
315  7900.2561
314  8013.4982
313  7888.6177
312  7943.7017
311  7802.958
310  7817.7743
309  7815.2195
308  8061.0274
307  8176.5098
306  8060.0336
305  8114.344
304  8115.5656
303  7738.6353
302  7858.7345
301  7869.9392
300  8023.8738
299  8220.3329
298  8247.7442
297  8309.9793
296  8024.992
295  8077.1375
294  8013.5931
293  8243.3514
292  8205.3695
291  8045.4001
290  7916.8219
289  8067.7631
288  8091.1097
287  8045.9618
286  7841.3986
285  7896.9095
284  7819.1812
283  7804.8868
282  7793.4872
281  7805.2895
280  7853.5543
279  7914.1805
278  8172.6822
277  7711.26
276  7870.6237
275  8112.7468
274  7718.6555
273  7836.6597
272  8008.2136
271  7903.8779
270  7920.8462
269  8084.2754
268  8118.3238
267  8047.8252
266  8257.4324
265  8137.1783
264  7984.5032
263  8072.3634
262  8181.9549
261  8206.6399
260  7796.0983
259  7754.9603
258  8095.4093
257  7923.2014
256  7872.4217
255  7733.5427
254  7708.7447
253  7945.6059
252  7514.7775
251  7224.6751
250  7711.7988
249  7723.4349
248  7887.8606
247  7710.5353
246  8103.1157
245  8504.6754
244  8470.5218
243  9161.1729
242  8624.962
241  7393.2024
240  7285.3025
239  7456.907
238  7518.3171
237  7703.436
236  7805.384
235  7811.9468
234  7784.6238
233  7719.422
232  7757.7385
231  7586.0634
230  8152.0255
229  7854.6793
228  8254.3465
227  7704.197
226  7418.1419
225  7495.6823
224  7388.2822
223  7486.7242
222  7512.5566
221  7583.0153
220  7479.6535
219  7480.3261
218  7572.8099
217  7227.3846
216  7149.6836
215  7096.1707
214  7361.2799
213  7629.0229
212  7343.622
211  7463.8042
210  7152.2693
209  7569.6261
208  7766.3633
207  7519.9204
206  7153.5213
205  7315.4632
204  7834.998
203  7560.4358
202  7253.5969
201  7590.5729
200  7576.8577
199  7430.0847
198  7561.8662
197  7286.626
196  7299.4986
195  7446.9762
194  7651.2332
193  7429.2837
192  7297.5523
191  7402.6172
190  7535.5281
189  7491.5073
188  7381.7383
187  7116.4871
186  7318.1297
185  7259.1591
184  7575.2465
183  7516.6483
182  7255.8695
181  7616.3152
180  7960.5786
179  7744.159
178  8055.1395
177  8031.3436
176  8056.389
175  7447.2329
174  7422.0751
173  7643.3489
172  7336.7992
171  6810.9446
170  6955.8772
169  6727.2913
168  6414.3299
167  6207.3568
166  5823.7479
165  5577.0195
164  5338.3549
163  5357.8962
162  5349.8796
161  5541.9481
160  5921.1587
159  6566.8096
158  10019.043
157  17758.473
156  26401.955
155  24171.024
154  14789.135
153  8883.1844
152  6839.7387
151  6681.0549
150  5625.4154
149  4717.2513
148  4539.7021
147  4275.1738
146  4329.5268
145  4157.6701
144  4162.0726
143  4058.9521
142  4028.724
141  3994.8239
140  4131.2394
139  4100.9703
138  3948.7547
137  3936.1615
136  4022.2302
135  3918.9613
134  3805.0527
133  4032.9382
132  3911.1665
131  4202.5317
130  4340.9892
129  4101.7391
128  4504.7163
127  4130.8771
126  4432.0976
125  4297.8106
124  4251.8244
123  4291.9958
122  4103.2374
121  3645.4929
120  3576.5467
119  3125.646
118  3075.1192
117  3086.6617
116  2728.1961
115  2371.1402
114  2075.5251
113  1798.6542
112  1731.939
111  1565.6033
110  1479.6156
109  1505.6584
108  1619.0801
107  3811.6861
106  13206.105
105  26856.625
104  22938.941
103  8950.3516
102  2585.1136
101  1704.9532
100  2816.8216
99  2613.153
98  1043.2817
97  921.10808
96  903.20566
95  768.47539
94  858.76724
93  840.50118
92  799.41701
91  770.07055
90  853.40116
89  865.22459
88  859.31065
87  884.05287
86  937.58632
85  863.30011
84  861.33085
83  823.87014
82  795.19519
81  812.42505
80  1001.6823
79  1097.0644
78  962.60438
77  902.83471
76  957.66441
75  971.51901
74  1065.1744
73  1041.1347
72  977.49916
71  867.12554
70  977.06082
69  902.25454
68  969.33597
67  902.76275
66  926.19561
65  1086.7608
64  957.93828
63  964.74185
62  930.77301
61  867.96592
60  947.67144
59  983.84921
58  954.66721
57  1180.482
56  1083.5438
55  1100.5687
54  1118.777
53  1196.7284
52  1255.7729
51  1174.4125
50  1184.7095
49  1232.8102
48  1254.3375
47  1124.8963
46  982.799
45  975.81572
44  942.67513
43  957.97557
42  989.92227
41  945.30196
40  855.44483
39  926.28752
38  886.27957
37  867.20981
36  958.38669
35  889.85152
34  931.76892
33  1097.6614
32  1203.9971
31  1329.2397
30  1668.0265
29  2376.2699
28  3346.3035
27  4276.0003
26  4003.04
25  2400.5059
24  1159.5659
23  662.21889
22  410.99671
21  275.93007
20  180.86762
19  186.53462
18  244.5347
17  622.2245
16  1057.4331
15  1049.7647
14  976.81001
13  1041.3624
12  975.35554
11  981.95867
10  1177.4692
9  1171.197
8  968.8931
7  626.18337
6  331.21718
5  197.72946
4  100.61436
3  68.009314
2  75.346272
1  28.61089
0  19.82005