# Region:            Survey (4)
# Acquisition Date:  11/08/19 20:53:59 UTC
# Analysis Method:   XPS
# Analyzer:          Phoibos
# Analyzer Lens:     MediumArea:1.5kV
# Analyzer Slit:     4:3x20\B:open
# Scan Mode:         FixedAnalyzerTransmission
# Curves/Scan:       1
# Values/Curve:      1301
# Dwell Time:        0.1
# Excitation Energy: 1486.71
# Binding Energy:    1300
# Pass Energy:       50
# Bias Voltage:      90
# Detector Voltage:  1900
# Eff. Workfunction: 4.395
# Source:            Focus
# Comment:           Despues de decapado de otros 5 min
#
# Cycle: 0
# Number of Scans: 2
#
# Cycle: 0, Curve: 0
# Acquisition Date: 11/08/19 20:53:59 UTC
#
# ColumnLabels: energy counts/s
#
1300  13391.817
1299  13394.794
1298  13534.933
1297  13526.994
1296  13308.43
1295  13380.186
1294  12738.777
1293  13115.151
1292  13577.006
1291  13382.203
1290  13533.896
1289  13257.359
1288  12851.553
1287  13277.015
1286  13143.12
1285  12913.799
1284  12758.851
1283  13278.727
1282  13582.572
1281  12507.495
1280  12415.027
1279  12951.404
1278  13412.062
1277  12819.694
1276  12631.617
1275  13187.946
1274  13085.234
1273  13179.888
1272  13277.642
1271  12911.639
1270  13006.517
1269  12968.555
1268  12941.391
1267  13070.845
1266  12963.656
1265  12915.87
1264  13464.448
1263  12766.218
1262  13150.733
1261  12804.08
1260  12607.011
1259  12872.749
1258  12931.947
1257  12794.116
1256  12927.633
1255  13354.229
1254  12855.289
1253  12835.518
1252  13286.689
1251  12721.795
1250  13037.525
1249  12693.582
1248  13196.752
1247  12553.367
1246  12560.165
1245  12421.112
1244  12943.766
1243  12403.979
1242  13103.912
1241  12551.378
1240  12747.533
1239  12565.751
1238  12463.34
1237  13009.954
1236  12718.563
1235  12592.669
1234  12650.028
1233  12987.444
1232  12844.273
1231  13007.501
1230  12955.644
1229  12473.306
1228  12848.247
1227  12927.696
1226  12852.617
1225  13053.794
1224  12877.824
1223  12779.21
1222  12769.462
1221  13426.007
1220  12726.632
1219  12464.075
1218  12677.854
1217  12882.551
1216  12344.938
1215  12367.905
1214  12936.118
1213  12812.01
1212  12638.224
1211  12964.243
1210  13033.194
1209  13056.009
1208  12793.122
1207  12943.769
1206  12573.753
1205  12881.202
1204  12701.863
1203  12804.288
1202  12908.886
1201  12509.256
1200  12669.588
1199  12545.063
1198  12674.762
1197  12980.299
1196  12584.727
1195  12470.564
1194  12691.974
1193  13134.478
1192  12978.754
1191  12892.04
1190  12557.53
1189  12898.254
1188  12565.806
1187  12851.801
1186  12979.969
1185  12843.463
1184  12367.475
1183  12791.284
1182  12945.647
1181  12855.55
1180  12872.666
1179  12946.159
1178  12709.895
1177  12694.906
1176  12612.132
1175  13023.916
1174  12785.235
1173  12691.407
1172  12811.326
1171  13082.309
1170  13061.644
1169  13227.209
1168  12789.429
1167  13036.099
1166  13011.711
1165  13140.818
1164  12814.496
1163  12915.312
1162  13194.338
1161  13045.013
1160  13027.995
1159  12694.751
1158  13137.617
1157  13129.435
1156  12650.167
1155  13189.361
1154  13233.296
1153  13274.296
1152  13107.085
1151  13087.424
1150  12959.029
1149  13207.458
1148  13229.467
1147  13206.913
1146  13139.011
1145  13265.104
1144  12877.962
1143  13096.98
1142  13405.543
1141  13391.686
1140  13479.469
1139  13161.404
1138  13122.346
1137  13327.045
1136  13009.691
1135  13130.147
1134  13218.491
1133  13130.849
1132  13482.053
1131  13363.492
1130  13030.891
1129  13257.623
1128  13458.074
1127  13515.783
1126  13257.919
1125  13344.72
1124  13333.18
1123  13317.371
1122  13254.926
1121  13435.374
1120  13416.108
1119  13582.038
1118  13366.72
1117  13365.902
1116  13354.14
1115  13302.738
1114  13562.541
1113  13234.833
1112  13801.568
1111  14078.93
1110  13882.127
1109  13522.594
1108  13795.698
1107  13305.995
1106  13405.124
1105  13712.273
1104  13666.052
1103  13828.972
1102  13973.658
1101  14080.691
1100  13767.898
1099  14099.47
1098  13936.79
1097  13903.297
1096  13608.717
1095  13885.316
1094  13949.836
1093  13537.077
1092  13794.053
1091  13561.127
1090  13419.493
1089  13626.402
1088  14035.491
1087  13838.266
1086  14250.083
1085  14075.005
1084  13979.732
1083  14449.934
1082  14008.085
1081  13611.232
1080  14259.8
1079  14040.332
1078  14149.12
1077  14427.399
1076  14424.823
1075  14223.684
1074  14566.829
1073  14387.944
1072  14321.942
1071  14882.921
1070  14384.664
1069  13899.041
1068  14284.245
1067  14125.348
1066  14229.631
1065  14876.162
1064  14565.301
1063  14779.368
1062  14660.027
1061  14248.558
1060  14552.089
1059  14825.963
1058  14645.18
1057  14116.947
1056  14431.513
1055  14736.494
1054  14751.864
1053  14600.702
1052  15091.396
1051  15307.46
1050  15267.671
1049  15378.256
1048  15002.655
1047  14970.525
1046  15083.98
1045  14812.291
1044  15195.398
1043  15633.309
1042  15390.806
1041  15691.312
1040  15748.434
1039  15543.681
1038  15221.281
1037  15590.3
1036  15546.643
1035  15445.62
1034  15758.515
1033  15864.656
1032  15799.551
1031  16125.877
1030  16098.372
1029  16114.653
1028  16556.493
1027  16205.495
1026  15851.714
1025  16599.518
1024  16443.627
1023  16531.367
1022  16380.137
1021  16880.347
1020  17125.778
1019  17169.453
1018  17422.083
1017  17689.375
1016  16942.973
1015  16855.256
1014  17011.857
1013  16455.733
1012  16415.018
1011  16675.68
1010  17098.345
1009  17649.392
1008  17658.761
1007  17897.33
1006  18289.191
1005  19520.294
1004  19920.361
1003  21104.44
1002  20797.412
1001  20972.508
1000  19165.064
999  17833.601
998  17657.319
997  17572.187
996  17463.471
995  16523.908
994  15522.804
993  15493.902
992  15266.201
991  15306.208
990  16570.902
989  16675.14
988  16454.305
987  16872.928
986  18336.812
985  21269.685
984  23357.176
983  24973.542
982  27221.44
981  28435.748
980  27991.506
979  23392.49
978  20165.078
977  17997.411
976  16090.538
975  14883.454
974  12872.436
973  12156.552
972  11269.51
971  10376.838
970  9080.2681
969  8329.1345
968  7978.7943
967  7622.2318
966  7383.3425
965  7352.9602
964  6815.7629
963  7086.9352
962  7146.9507
961  7152.3038
960  6998.5137
959  6890.0413
958  6959.1567
957  7118.9489
956  7247.1866
955  7386.3667
954  7111.0902
953  6977.8075
952  7083.8482
951  6989.8197
950  7044.1738
949  7084.127
948  7107.553
947  7373.159
946  7244.29
945  7166.6011
944  7201.6208
943  7394.0502
942  7264.8514
941  7306.6038
940  7144.2668
939  7411.5602
938  7480.7876
937  7296.9419
936  7496.4029
935  7452.4748
934  7311.5938
933  7117.7738
932  6876.6559
931  7329.796
930  7404.655
929  7220.3165
928  7508.2431
927  7394.6002
926  7271.5612
925  7211.7475
924  7392.5456
923  7317.6692
922  7475.2946
921  7597.4933
920  7309.9753
919  7667.0627
918  7752.797
917  7378.3545
916  7535.9919
915  7483.0382
914  7491.6005
913  7680.2455
912  7595.993
911  7375.471
910  7804.6206
909  8186.207
908  7934.0297
907  7921.3496
906  7831.3236
905  7630.1806
904  7528.7949
903  7851.4723
902  7452.6772
901  7705.9291
900  7788.1157
899  7692.6932
898  7585.1629
897  7899.5271
896  7756.8981
895  7702.3935
894  7906.6756
893  7685.2855
892  7697.8085
891  8205.8214
890  8009.8977
889  7886.311
888  7924.7845
887  7847.134
886  7724.2751
885  8274.7927
884  7898.9445
883  7991.9477
882  8003.0082
881  8289.7976
880  8250.5856
879  8115.3872
878  8413.4068
877  8319.4589
876  8275.0941
875  8040.2396
874  8489.55
873  8535.5981
872  8431.411
871  8609.5181
870  8493.2852
869  8624.0072
868  8471.246
867  8159.3274
866  8438.9569
865  8240.1557
864  8485.7704
863  8661.1099
862  8266.3478
861  8506.5999
860  8452.5863
859  8318.9746
858  8527.8337
857  8593.62
856  8609.6917
855  8597.5179
854  8670.9245
853  8626.126
852  8539.3995
851  8687.5079
850  8815.9752
849  8606.8067
848  8879.6181
847  8729.2058
846  8951.0112
845  8835.7902
844  8748.6143
843  8904.1509
842  9029.9935
841  8845.8056
840  8758.2789
839  8813.9023
838  8671.2832
837  9086.9661
836  8909.3136
835  8906.7917
834  9130.4325
833  8992.41
832  9418.9243
831  9119.5333
830  9193.6226
829  9301.0341
828  9020.5745
827  8736.6253
826  9007.0301
825  9496.2566
824  9218.7606
823  9414.4925
822  9596.5426
821  9124.5617
820  9251.3657
819  9465.3355
818  9321.145
817  9248.0922
816  9118.4072
815  9223.3424
814  9106.0258
813  9166.5191
812  9479.5403
811  9543.9734
810  9754.9309
809  9187.8042
808  9441.3689
807  9658.3607
806  9270.3901
805  9562.3009
804  9905.8408
803  9717.5185
802  9438.7582
801  9520.774
800  9790.9248
799  9575.2034
798  9779.6786
797  9501.4111
796  9642.442
795  9724.9665
794  9606.9992
793  10035.554
792  9724.1814
791  10084.36
790  9931.4533
789  9738.2081
788  9693.6594
787  10095.46
786  10028.81
785  9798.3731
784  9790.9677
783  10238.47
782  10219.724
781  10244.054
780  10005.711
779  9912.2267
778  10110.375
777  10219.002
776  10114.956
775  10066.229
774  10553.89
773  10404.299
772  10129.515
771  10123.717
770  10512.332
769  10412.601
768  10305.207
767  10309.635
766  10501.734
765  10393.107
764  10473.914
763  10273.947
762  10426.307
761  10392.964
760  10412.249
759  10592.116
758  10785.885
757  10692.423
756  10428.421
755  10661.631
754  10434.251
753  10647.87
752  10749.497
751  10744.849
750  10607.291
749  10675.544
748  10689.257
747  10834.003
746  10852.444
745  10756.09
744  10767.61
743  11307.238
742  11411.945
741  11031.156
740  11119.72
739  10917.399
738  11480.004
737  11445.639
736  11122.465
735  11209.12
734  11536.48
733  11678.765
732  11194.34
731  11092.726
730  11562.214
729  11381.642
728  11196.26
727  11077.623
726  10921.04
725  11051.704
724  11509.917
723  11765.687
722  11718.168
721  11524.004
720  11627.94
719  11307.456
718  11595.433
717  11895.759
716  11806.92
715  11795.372
714  12065.66
713  12006.708
712  12040.056
711  12130.543
710  11839.399
709  11828.726
708  11753.11
707  12107.15
706  12232.531
705  12095.147
704  12218.577
703  11703.329
702  11591.678
701  12200.948
700  11982.787
699  12399.895
698  12282.666
697  12052.099
696  12113.735
695  12209.878
694  12406.178
693  12663.297
692  12415.391
691  11918.649
690  12052.73
689  12356.557
688  12526.149
687  12078.399
686  12707.125
685  12619.208
684  12743.798
683  12369.676
682  12922.153
681  13494.495
680  13164.44
679  12767.406
678  12851.233
677  12932.696
676  12785.029
675  13002.114
674  13342.416
673  13244.591
672  13053.657
671  13142.836
670  12911.674
669  13160.717
668  13521.292
667  13476.587
666  13762.645
665  13498.52
664  13423.89
663  13531.268
662  13128.246
661  13678.978
660  13628.221
659  13724.311
658  13943.978
657  13965.163
656  14076.441
655  14080.776
654  13915.382
653  14157.842
652  14629.697
651  13938.887
650  14270.724
649  14304.85
648  14379.812
647  14645.369
646  14409.949
645  14304.431
644  14269.049
643  14736.751
642  14647.602
641  14611.344
640  14647.085
639  14237.951
638  14612.466
637  14792.133
636  14429.218
635  14338.82
634  14603.9
633  14510.912
632  14759.47
631  15306.751
630  15277.294
629  15223.718
628  15104.375
627  15183.358
626  15116.88
625  15226.021
624  15401.677
623  15925.028
622  15659.599
621  15746.041
620  15551.565
619  15763.48
618  15573.522
617  15701.018
616  16059.373
615  16187.45
614  15616.543
613  16101.878
612  16696.451
611  16124.84
610  15814.816
609  16023.131
608  16459.335
607  16027.49
606  16332.788
605  16934.371
604  16785.453
603  16973.821
602  16631.261
601  16834.106
600  16837.009
599  17330.801
598  17024.746
597  16548.065
596  16639.47
595  16882.619
594  17045.386
593  17075.054
592  17471.985
591  17566.494
590  17369.895
589  17431.84
588  17721.975
587  17657.932
586  17751.176
585  18010.138
584  18280.615
583  18054.177
582  17967.664
581  17619.773
580  17864.708
579  17951.281
578  17924.314
577  18066.396
576  18081.495
575  17902.921
574  17750.812
573  17869.858
572  18025.668
571  17749.325
570  17802.889
569  17615.815
568  17241.396
567  17061.704
566  17426.381
565  18405.669
564  19125.558
563  19359.312
562  19661.389
561  20311.982
560  20982.63
559  21433.746
558  22029.72
557  22819.664
556  22908.986
555  21797.488
554  20867.261
553  19514.768
552  18239.22
551  16810.734
550  16197.842
549  15943.615
548  15203.61
547  13992.305
546  13331.39
545  12883.706
544  11491.594
543  10688.413
542  9900.1497
541  9743.6531
540  9326.8659
539  9180.2693
538  9486.052
537  11880.937
536  22796.068
535  74000.874
534  142481.21
533  87451.838
532  22408.298
531  10146.795
530  7959.6837
529  7400.0133
528  7300.803
527  7108.2423
526  7398.8376
525  7359.443
524  7037.3371
523  7261.0832
522  7198.9386
521  6868.4426
520  7142.1827
519  7003.6639
518  7189.761
517  7151.9843
516  7168.2893
515  7587.8888
514  7163.0343
513  7043.4063
512  6828.3734
511  7044.019
510  6648.3399
509  6961.3163
508  6947.0711
507  6984.2013
506  6922.1263
505  7059.8879
504  7038.6853
503  7268.6193
502  7161.1627
501  7020.827
500  7150.1776
499  7301.9535
498  7091.1453
497  6762.1527
496  6941.2379
495  6942.4943
494  7246.7468
493  7220.955
492  7283.6425
491  6952.9633
490  6911.2906
489  7172.7156
488  7105.2812
487  6990.5962
486  7282.2339
485  7365.588
484  7515.2024
483  7134.2211
482  7248.6547
481  7217.2545
480  7015.0987
479  7431.0586
478  7553.3207
477  7292.5625
476  7364.9601
475  7204.8249
474  7223.5507
473  7350.3419
472  7380.3948
471  7374.6835
470  7294.0768
469  7280.4527
468  7093.926
467  7096.2085
466  6881.5383
465  7095.3191
464  7241.3281
463  7366.0504
462  7363.522
461  7181.4185
460  7225.2242
459  7125.3393
458  7247.2424
457  7197.8967
456  7266.8499
455  7240.9537
454  7334.95
453  7598.1376
452  7590.7949
451  7593.4207
450  7656.4884
449  7428.431
448  7162.3121
447  7468.9055
446  7543.0403
445  7342.6549
444  7393.1386
443  7598.4124
442  7209.9636
441  7391.9544
440  7469.9637
439  7395.9734
438  6997.4567
437  7434.1778
436  7569.4928
435  7666.9209
434  7421.3792
433  7646.0466
432  7482.8554
431  7612.6243
430  7394.6753
429  7432.4145
428  7909.6165
427  7510.2393
426  7589.2112
425  7976.737
424  7690.286
423  7577.2815
422  7558.2845
421  7904.2699
420  8105.3305
419  7804.917
418  7538.9327
417  7739.747
416  7397.3604
415  7351.1858
414  7606.173
413  7770.8102
412  7621.9733
411  7692.4308
410  7662.4047
409  7439.376
408  7837.9685
407  8111.9233
406  7895.0172
405  7969.0224
404  7888.2445
403  7649.5752
402  7819.2471
401  8071.3435
400  8424.8973
399  8174.6839
398  7887.9516
397  7738.5892
396  7991.5304
395  7935.3206
394  7878.6442
393  8249.0304
392  7824.8118
391  7398.2232
390  7905.9149
389  7680.3551
388  7662.7615
387  7929.5788
386  7954.0388
385  7765.647
384  7814.8446
383  7782.3067
382  7674.9392
381  7954.2723
380  7745.0181
379  7557.6425
378  7499.9593
377  7581.4756
376  7662.8941
375  7880.9777
374  7762.4492
373  7690.6574
372  7672.5509
371  7688.4873
370  8022.3543
369  8012.8086
368  7794.9556
367  7655.9231
366  8193.8054
365  7950.2591
364  8206.632
363  8199.6259
362  8055.0265
361  8162.0797
360  8078.0025
359  7671.4223
358  7805.4458
357  8056.5302
356  7947.1934
355  8197.9625
354  8074.2981
353  7855.3766
352  8001.7123
351  8195.5873
350  8266.5521
349  8418.6754
348  8012.4381
347  7928.0101
346  7916.964
345  7927.8113
344  8312.3443
343  8171.2071
342  7994.0693
341  8136.3054
340  7993.0195
339  7923.5613
338  8123.4831
337  8237.3225
336  8156.5196
335  7809.6928
334  8191.1232
333  7956.1729
332  8080.4868
331  8145.999
330  8021.3849
329  8072.0642
328  8064.18
327  7978.8703
326  8325.019
325  8213.1935
324  8234.5428
323  8322.6374
322  8437.3368
321  8875.6724
320  8575.9016
319  8295.1412
318  8427.7216
317  8181.3105
316  8016.3308
315  8159.3619
314  7925.7857
313  8208.8319
312  8070.7542
311  8024.3946
310  8264.6251
309  8361.9131
308  7842.3677
307  8023.1212
306  8006.0324
305  7908.3841
304  8288.8516
303  8048.4815
302  7929.9599
301  7985.7513
300  8214.1262
299  7893.3329
298  8332.8713
297  8290.4946
296  8299.4119
295  8706.9614
294  8275.1244
293  8091.2739
292  8290.1253
291  8124.548
290  8105.9096
289  8229.1754
288  8190.8638
287  8040.7729
286  8057.3479
285  8402.4349
284  8339.4281
283  7981.0314
282  8352.3841
281  8442.7569
280  8185.5234
279  8226.4414
278  8141.7052
277  8195.235
276  8190.6609
275  8352.858
274  8451.7922
273  8126.868
272  8049.1057
271  8274.3017
270  8261.0644
269  8328.9298
268  8073.8427
267  8368.1224
266  8312.1854
265  8160.2604
264  8233.1551
263  8131.526
262  8239.9139
261  7883.7666
260  8391.6013
259  8166.9364
258  8014.9213
257  8213.091
256  8042.6649
255  8093.7711
254  8018.2645
253  8306.963
252  7735.6452
251  7840.3023
250  7786.9227
249  7986.2786
248  7986.8486
247  7901.7256
246  8359.314
245  8805.4206
244  8991.6767
243  9458.5621
242  8856.1549
241  8234.4319
240  7964.28
239  8098.4766
238  7938.4803
237  8081.4301
236  8078.6644
235  8113.3115
234  7969.1638
233  7835.2336
232  8056.5227
231  8159.5994
230  7727.2257
229  8162.1482
228  8098.2993
227  8112.5146
226  7831.4616
225  8041.9144
224  8036.21
223  7824.7008
222  7824.3511
221  8029.3056
220  8043.9787
219  7844.0463
218  7832.278
217  7879.4458
216  7767.9753
215  7811.0766
214  7751.3219
213  7688.0593
212  7866.5993
211  7793.9141
210  7758.8687
209  7858.7228
208  8007.2791
207  8131.499
206  8073.3199
205  7712.0698
204  7903.3926
203  8244.9415
202  8010.7691
201  7833.6729
200  8055.1677
199  7882.2542
198  7660.1755
197  8046.4019
196  7691.7425
195  7575.5094
194  7775.3299
193  7740.9612
192  7476.3463
191  7524.1833
190  7589.4947
189  7887.4747
188  7953.9608
187  7709.6646
186  7904.4062
185  7606.0446
184  7471.553
183  7583.2572
182  8078.5094
181  7778.5785
180  7928.8737
179  8430.6063
178  8297.7465
177  8025.7279
176  7946.6206
175  8200.2285
174  8023.4
173  7521.1125
172  7683.1261
171  7442.2067
170  7162.7847
169  7157.4258
168  7163.6427
167  6783.0235
166  6407.9711
165  6175.7382
164  6085.5263
163  6101.4606
162  5508.0243
161  5362.7804
160  5693.2192
159  6899.4072
158  9478.4299
157  16389.482
156  25767.019
155  25104.756
154  15610.841
153  9585.8158
152  7275.6274
151  7423.5219
150  6444.7869
149  5020.087
148  4671.0051
147  4503.5148
146  4194.1027
145  4292.5601
144  4342.236
143  4178.5338
142  4433.2277
141  4287.8806
140  4245.116
139  4135.5041
138  4172.3939
137  4179.1182
136  3994.5141
135  4086.0788
134  4134.4081
133  4043.4951
132  3958.9755
131  4025.7375
130  4274.8535
129  4361.7823
128  4268.917
127  4471.4509
126  4500.716
125  4280.5854
124  4433.5442
123  4277.7507
122  4092.6734
121  3738.9335
120  3526.3927
119  3564.6379
118  3281.3011
117  3150.6425
116  3139.161
115  2599.2132
114  2184.2085
113  1918.9051
112  1756.4229
111  1705.4963
110  1702.479
109  1684.3603
108  1785.722
107  3495.3909
106  11543.452
105  26097.577
104  24561.247
103  9471.0169
102  3298.0264
101  2098.3486
100  3456.1222
99  3030.9722
98  1096.1761
97  910.07987
96  852.40938
95  845.44485
94  838.70406
93  868.39914
92  794.09927
91  839.33047
90  897.16416
89  818.16168
88  998.40179
87  898.83482
86  891.43016
85  885.70185
84  981.23279
83  1039.1532
82  882.22719
81  976.90119
80  881.45593
79  796.21575
78  905.89645
77  977.2877
76  1003.2187
75  909.80594
74  849.40658
73  987.97287
72  953.15141
71  1059.5656
70  1007.885
69  893.35468
68  915.77085
67  954.46888
66  938.07281
65  1018.0787
64  973.37731
63  1054.5881
62  1091.3575
61  958.82291
60  1020.2388
59  1072.8869
58  992.5801
57  1048.2899
56  1162.102
55  1297.8733
54  1124.2607
53  1225.2054
52  1211.3144
51  1314.9512
50  1335.0343
49  1226.137
48  1108.3743
47  1095.1758
46  1117.8937
45  1078.0182
44  1062.5943
43  924.29875
42  854.07839
41  899.12405
40  930.56365
39  928.6385
38  915.35835
37  917.75312
36  915.97244
35  1050.1034
34  1008.0074
33  1034.7306
32  1099.7058
31  1116.7342
30  1568.47
29  2126.5963
28  3107.9858
27  3915.862
26  4024.4487
25  2647.635
24  1150.0292
23  570.13036
22  432.364
21  397.62668
20  278.10803
19  271.60115
18  275.40885
17  561.32213
16  1005.614
15  1139.4873
14  1135.746
13  1007.9179
12  995.37007
11  1075.4558
10  1138.0321
9  1125.843
8  1048.2687
7  717.45218
6  294.15679
5  222.77966
4  157.70796
3  110.3453
2  84.050317
1  28.512074
0  22.62115