# Region:            Survey (7)
# Acquisition Date:  11/09/19 01:51:56 UTC
# Analysis Method:   XPS
# Analyzer:          Phoibos
# Analyzer Lens:     MediumArea:1.5kV
# Analyzer Slit:     4:3x20\B:open
# Scan Mode:         FixedAnalyzerTransmission
# Curves/Scan:       1
# Values/Curve:      1301
# Dwell Time:        0.1
# Excitation Energy: 1486.71
# Binding Energy:    1300
# Pass Energy:       50
# Bias Voltage:      90
# Detector Voltage:  1900
# Eff. Workfunction: 4.395
# Source:            Focus
# Comment:           Despues de decapado 10 min
#
# Cycle: 0
# Number of Scans: 2
#
# Cycle: 0, Curve: 0
# Acquisition Date: 11/09/19 01:51:56 UTC
#
# ColumnLabels: energy counts/s
#
1300  8470.1847
1299  8824.3465
1298  8857.3337
1297  8325.2534
1296  8474.7399
1295  8900.1861
1294  8549.1484
1293  8339.0723
1292  8195.5936
1291  8452.3174
1290  8586.6976
1289  8688.3084
1288  8632.6415
1287  8325.6927
1286  8288.6851
1285  8294.9001
1284  8209.5368
1283  8469.9314
1282  8299.2992
1281  8259.6389
1280  8096.1704
1279  7768.2787
1278  7969.8913
1277  7957.184
1276  8162.1614
1275  8194.4504
1274  8230.4897
1273  8395.4841
1272  8418.2442
1271  8155.1676
1270  8001.6673
1269  8136.1874
1268  8219.9088
1267  8174.2396
1266  8165.9258
1265  8188.4003
1264  8108.5081
1263  7943.1566
1262  8228.6249
1261  8049.538
1260  8273.8809
1259  8043.5199
1258  7873.869
1257  7673.7846
1256  7948.7812
1255  7946.1074
1254  7738.928
1253  8000.5963
1252  7960.0039
1251  8173.702
1250  8000.6617
1249  7777.2487
1248  7691.6435
1247  7730.8768
1246  7459.3587
1245  7514.3964
1244  7648.4182
1243  7778.3012
1242  7802.6689
1241  7807.0692
1240  7663.1518
1239  7927.663
1238  8053.2584
1237  7610.7791
1236  7641.7231
1235  7689.7648
1234  7770.889
1233  7674.3131
1232  7545.873
1231  7597.7924
1230  7687.8847
1229  7846.2725
1228  7681.552
1227  7571.786
1226  7383.4415
1225  7475.8072
1224  7493.1978
1223  7594.8774
1222  7635.2676
1221  7466.8701
1220  7527.5796
1219  7664.9105
1218  7551.6605
1217  7409.9293
1216  7770.2296
1215  7287.0264
1214  7566.7926
1213  7823.3871
1212  7710.6899
1211  7820.0571
1210  7732.0127
1209  7915.3432
1208  7634.1723
1207  7971.1594
1206  7366.2766
1205  7740.4312
1204  7237.8934
1203  7744.3285
1202  7592.602
1201  7744.7124
1200  7657.1194
1199  7455.0063
1198  7677.1076
1197  7600.3677
1196  7687.3663
1195  7856.6484
1194  7703.745
1193  7093.2808
1192  7385.8997
1191  7685.365
1190  7636.6422
1189  7660.3528
1188  7460.2701
1187  7445.8689
1186  7552.1025
1185  7537.2405
1184  7837.8668
1183  7681.4304
1182  7608.999
1181  7920.0491
1180  7760.0348
1179  7667.0581
1178  7523.3704
1177  7612.4105
1176  7734.9497
1175  7429.4387
1174  7557.631
1173  7411.1546
1172  7956.0694
1171  7787.276
1170  7557.0841
1169  7411.4743
1168  7532.242
1167  7594.1907
1166  7718.2734
1165  7553.4611
1164  7450.3288
1163  7627.4534
1162  7654.2242
1161  7794.051
1160  7550.9479
1159  7342.3984
1158  7709.6176
1157  7563.8196
1156  7772.4454
1155  7531.3932
1154  7872.1428
1153  7729.046
1152  7559.2476
1151  7502.855
1150  7799.3879
1149  7697.3362
1148  7450.8572
1147  7495.4571
1146  7766.8797
1145  7643.3278
1144  7511.7029
1143  7514.4024
1142  7475.5558
1141  7859.844
1140  7778.3918
1139  7786.3123
1138  7813.6192
1137  7565.5349
1136  7848.372
1135  7872.6201
1134  7658.8075
1133  7392.7249
1132  8198.65
1131  7851.0633
1130  7593.619
1129  7915.7445
1128  7345.1343
1127  7730.2755
1126  7710.9973
1125  7975.9929
1124  8031.9914
1123  7836.1654
1122  7636.2033
1121  7636.6372
1120  7517.4059
1119  7647.2195
1118  7920.0367
1117  7884.022
1116  7919.4778
1115  8038.9831
1114  7876.0587
1113  8035.1529
1112  7561.3259
1111  7820.6109
1110  7830.3499
1109  7767.5046
1108  7746.7051
1107  7646.1384
1106  8055.9937
1105  7721.2922
1104  7801.8899
1103  7799.0721
1102  7987.6223
1101  8087.0973
1100  8114.8397
1099  7789.0483
1098  8124.1388
1097  8007.1006
1096  8369.2317
1095  8203.9565
1094  8179.2121
1093  8226.4351
1092  8173.5565
1091  8211.6881
1090  7677.3585
1089  7910.1995
1088  8321.7372
1087  8287.6191
1086  8294.7779
1085  7957.4458
1084  8161.612
1083  8088.8558
1082  8321.1438
1081  8299.0342
1080  8271.9646
1079  7938.5958
1078  8090.5183
1077  8224.3701
1076  8361.1003
1075  8684.4609
1074  8943.3635
1073  9622.5481
1072  8917.4302
1071  8157.1624
1070  8380.6669
1069  8158.3623
1068  8240.2683
1067  8534.8759
1066  8672.4191
1065  8560.554
1064  8399.6449
1063  8721.9745
1062  8184.5712
1061  8420.1969
1060  8361.2088
1059  8407.6832
1058  8754.0086
1057  8721.5432
1056  9004.974
1055  8695.6922
1054  8774.6145
1053  8881.8872
1052  8612.4026
1051  8569.5881
1050  8934.3154
1049  8788.9092
1048  8855.6699
1047  8961.0957
1046  8973.2392
1045  9063.1187
1044  9626.9013
1043  9539.0237
1042  9282.9091
1041  8988.3352
1040  9062.6758
1039  9495.2564
1038  9319.8522
1037  9256.8137
1036  9287.0887
1035  9566.9776
1034  9806.0116
1033  9498.0114
1032  9597.3772
1031  9872.2925
1030  10033.433
1029  10066.288
1028  9986.8
1027  9926.1868
1026  10048.948
1025  10307.678
1024  10506.317
1023  10440.082
1022  10489.935
1021  10639.039
1020  10861.779
1019  11099.529
1018  10990.472
1017  10815.514
1016  11227.887
1015  11506.471
1014  10866.411
1013  11128.4
1012  11168.849
1011  10977.671
1010  10607.893
1009  10648.964
1008  10768.381
1007  11401.039
1006  11872.063
1005  12179.476
1004  12244.197
1003  12875.314
1002  13125.684
1001  13172.074
1000  13516.295
999  13686.849
998  13289.245
997  12909.159
996  12514.064
995  12330.895
994  11799.308
993  11293.94
992  11037.59
991  11111.703
990  11357.935
989  11465.72
988  11438.508
987  11075.108
986  11848.925
985  12385.719
984  13367.16
983  14287.203
982  15754.364
981  16689.67
980  18079.571
979  19717.153
978  18766.908
977  16935.179
976  14775.321
975  12984.944
974  11199.481
973  10115.994
972  9314.2847
971  8679.5958
970  7753.4806
969  7394.3426
968  6804.4087
967  6074.3984
966  5977.9732
965  5703.6538
964  5630.536
963  5352.9439
962  5409.0435
961  5579.3582
960  5350.311
959  5363.224
958  5117.9204
957  5160.0685
956  5256.193
955  5016.6807
954  5456.3896
953  5316.7623
952  5159.5691
951  5162.6524
950  5142.8314
949  4893.7362
948  5115.6219
947  5019.3305
946  5203.0761
945  5375.92
944  5242.6578
943  5413.533
942  5146.9869
941  5199.5719
940  5354.1349
939  5315.5047
938  5321.728
937  5535.8325
936  5408.8206
935  5233.6549
934  5199.837
933  5276.4298
932  5621.1957
931  5569.3109
930  5388.9294
929  5391.3148
928  5678.8871
927  5380.6529
926  5285.8635
925  5244.9007
924  5146.9877
923  5251.2378
922  5503.8932
921  5427.2709
920  5224.6136
919  5370.8248
918  5430.019
917  5418.0197
916  5507.4968
915  5347.7093
914  5322.6055
913  5257.5792
912  5209.2105
911  5607.358
910  5461.3521
909  5395.381
908  5541.432
907  5766.3453
906  5494.416
905  5670.1593
904  5518.7614
903  5560.5903
902  5665.7283
901  5855.0522
900  5956.2951
899  5877.0913
898  5559.5059
897  5695.102
896  5764.3017
895  5771.4538
894  6125.3269
893  5878.7103
892  5684.2606
891  5543.0953
890  5630.7634
889  5846.6411
888  5685.156
887  5570.3176
886  5444.4024
885  5935.3164
884  5877.105
883  5921.436
882  5746.7625
881  5636.9816
880  5542.7601
879  5691.4186
878  5741.606
877  5902.2094
876  5705.3932
875  5712.4449
874  5897.8999
873  5986.4744
872  5867.6866
871  5988.6345
870  5819.7701
869  5899.5549
868  5599.2578
867  5870.6278
866  5856.0942
865  6034.9584
864  5901.6183
863  5551.2075
862  6002.5185
861  6095.544
860  6056.0703
859  5926.5137
858  6131.4425
857  6021.3608
856  6060.0892
855  6181.6368
854  6000.1682
853  6130.9209
852  6215.2727
851  6393.3392
850  6235.6262
849  6245.9248
848  6436.5994
847  6204.4479
846  6135.8507
845  6227.9513
844  6171.9215
843  6123.8999
842  6089.1781
841  6381.5733
840  6304.5993
839  6244.4134
838  6391.6433
837  6466.5252
836  6320.0061
835  6231.1121
834  6388.2327
833  6325.7754
832  6385.8739
831  6036.1967
830  6218.3382
829  6111.9617
828  6509.1603
827  6652.6922
826  6508.4386
825  6591.3259
824  6894.0727
823  6496.613
822  6268.1615
821  6318.5341
820  6437.7475
819  6832.3667
818  6665.9094
817  6619.3937
816  6514.7668
815  6266.6087
814  6661.8358
813  6903.0256
812  6606.8622
811  6554.4229
810  6311.5125
809  6450.523
808  6822.1451
807  6784.7927
806  6626.1603
805  6760.543
804  6650.7527
803  7038.3429
802  6666.3864
801  6485.7229
800  6792.1215
799  6802.408
798  6737.6256
797  6812.1875
796  6534.8785
795  6790.5545
794  6873.6556
793  7103.1594
792  7019.0353
791  6813.0713
790  6879.7577
789  6956.6686
788  6955.4844
787  6891.86
786  7217.7184
785  7086.5362
784  6752.6763
783  7129.4812
782  6735.8951
781  6811.2988
780  6988.1159
779  6988.31
778  6870.7931
777  6982.1075
776  7152.9339
775  6911.3541
774  7195.2609
773  6998.1782
772  7290.6458
771  7148.8997
770  6723.1996
769  7262.5299
768  7177.1918
767  7084.8416
766  7339.3693
765  7151.549
764  7200.1344
763  7287.829
762  7344.5963
761  7433.6085
760  7199.8991
759  7291.5685
758  7556.2264
757  7350.9191
756  7119.5995
755  7362.5198
754  7160.0341
753  7564.6526
752  7499.3217
751  7177.2394
750  7260.944
749  7441.3321
748  7242.6142
747  7199.079
746  7240.4163
745  7078.331
744  7222.4973
743  7347.5418
742  7313.0063
741  7146.7492
740  7319.8612
739  7345.1985
738  7481.6696
737  7411.0892
736  7539.4367
735  7566.3405
734  7453.0613
733  7351.7748
732  7768.2355
731  7466.0958
730  7655.7933
729  7582.889
728  7712.1351
727  7651.3067
726  7545.4077
725  7555.6824
724  7945.7739
723  7903.0458
722  7553.5868
721  7537.7095
720  7474.4789
719  7601.8762
718  7596.696
717  7783.06
716  7598.2394
715  7819.6727
714  7904.0918
713  7908.7542
712  8106.4202
711  7853.521
710  7640.0661
709  7908.4168
708  7970.6278
707  7965.8301
706  8108.9842
705  7892.4719
704  7709.2569
703  8211.1609
702  8141.0083
701  8107.6188
700  8180.8441
699  7894.6324
698  7681.0804
697  7826.8193
696  8135.1169
695  7833.4592
694  7960.8149
693  7868.4783
692  7931.2003
691  8102.7813
690  8147.0878
689  8698.7942
688  8495.7009
687  8296.1674
686  8143.1868
685  8074.9987
684  8296.8182
683  8435.941
682  8325.4284
681  8397.8098
680  8340.5268
679  8188.9001
678  8608.5651
677  8567.0579
676  8634.5792
675  8801.3522
674  8550.4255
673  8471.8725
672  8517.4042
671  8829.3409
670  8500.0724
669  8556.5126
668  8543.8354
667  8406.0765
666  8770.3326
665  8508.5756
664  8844.9131
663  8643.2904
662  8604.3416
661  8524.8533
660  9205.8374
659  9168.4792
658  8790.43
657  8854.8098
656  9138.1526
655  9273.6999
654  8865.7525
653  8890.5923
652  9349.5677
651  9346.8815
650  9242.0151
649  9178.3471
648  8869.25
647  9058.8303
646  9274.4023
645  8885.3048
644  9122.9754
643  9379.8813
642  9300.8349
641  9377.1392
640  9394.2569
639  9210.3974
638  9104.7411
637  9703.4917
636  9633.0879
635  9517.4768
634  9549.4251
633  9541.1551
632  9382.8118
631  9723.2042
630  9646.8545
629  9492.6567
628  9777.8502
627  10031.446
626  9655.2449
625  9491.4464
624  9636.9392
623  10084.773
622  9814.2859
621  9868.4591
620  10092.964
619  10402.257
618  10318.648
617  10443.462
616  10120.09
615  10287.762
614  10344.115
613  10371.127
612  10141.851
611  10064.446
610  10311.366
609  10859.17
608  10936.319
607  10841.185
606  10975.75
605  10753.02
604  10781.122
603  10822.847
602  10853.949
601  10952.544
600  11277.843
599  10752.501
598  11053.662
597  11312.924
596  11271.575
595  11255.42
594  11186.959
593  11340.393
592  11449.467
591  11248.472
590  11411.096
589  11779.782
588  11615.768
587  11289.333
586  11467.529
585  11918.196
584  11725.525
583  11678.232
582  11984.807
581  12294.849
580  11918.195
579  12225.459
578  12312.533
577  11961.049
576  12232.538
575  12206.874
574  12135.169
573  12220.171
572  12534.715
571  12711.552
570  12368.893
569  12336.449
568  12426.61
567  12391.327
566  12555.301
565  12637.337
564  13164.782
563  12790.059
562  12779.785
561  13497.393
560  13616.287
559  13845.327
558  14036.444
557  14336.2
556  14208.721
555  14485.196
554  14478.603
553  14417.295
552  14230.541
551  13781.034
550  13510.183
549  13415.075
548  12878.678
547  12609.577
546  11909.817
545  11495.153
544  11311.411
543  11286.253
542  11205.086
541  10556.148
540  10679.855
539  10509.364
538  10309.835
537  10553.545
536  10957.997
535  14258.736
534  31223.526
533  68785.078
532  67096.076
531  27415.647
530  10630.354
529  8303.9672
528  7629.8083
527  8117.8068
526  7975.5014
525  7700.2646
524  7818.9371
523  7593.2269
522  7607.6237
521  7508.5037
520  7738.2419
519  7525.1692
518  7674.7861
517  7626.4921
516  7627.8538
515  7837.0853
514  7454.0364
513  7900.2101
512  7831.7734
511  7651.5079
510  8034.9721
509  7938.2726
508  7985.3178
507  8012.4787
506  7769.5296
505  7965.9775
504  7956.455
503  7921.5516
502  8104.015
501  7979.3628
500  7987.5502
499  8065.8672
498  8182.4614
497  7942.5056
496  8105.5713
495  7780.7153
494  7726.7309
493  7793.5505
492  7706.2499
491  7836.6546
490  7688.9341
489  7696.6781
488  7746.0222
487  8069.4355
486  7835.2212
485  7739.6489
484  7859.771
483  7979.3825
482  7590.2672
481  7756.8475
480  7975.9231
479  8173.5003
478  8055.967
477  8031.5702
476  7982.5204
475  7817.5799
474  7808.3439
473  7788.6723
472  7850.5679
471  8049.4604
470  8110.6502
469  8197.9345
468  8367.6468
467  8225.2462
466  8158.9165
465  8181.3093
464  7829.8196
463  8289.8098
462  8282.8847
461  8004.2677
460  7761.9062
459  8113.809
458  8024.1137
457  8316.7884
456  8164.0407
455  8593.9208
454  8132.2661
453  8102.5076
452  8161.1498
451  8189.3965
450  8038.8471
449  8253.2052
448  8073.5095
447  7763.1093
446  8004.5761
445  8347.5673
444  8515.4475
443  8551.1554
442  8514.0703
441  8159.9631
440  8585.984
439  8897.9233
438  8756.7196
437  8338.5808
436  8323.1685
435  8284.6239
434  8579.742
433  8509.7096
432  8485.2801
431  8468.9049
430  8597.5439
429  8379.4117
428  8329.551
427  8447.7598
426  8399.0966
425  8392.0596
424  8429.3512
423  8786.3997
422  8518.5561
421  8424.0155
420  8745.5376
419  8596.6311
418  8496.8
417  8379.2949
416  8583.9442
415  8586.5014
414  8402.0085
413  8778.8516
412  9009.0254
411  9089.8226
410  8698.4815
409  8921.3922
408  8523.9325
407  8808.8373
406  8711.4912
405  8617.887
404  9022.8544
403  8362.5192
402  8638.3636
401  8270.3622
400  8662.2627
399  8779.5991
398  8869.9652
397  9263.3211
396  8969.7181
395  8807.4082
394  8867.2139
393  8784.2768
392  8661.9672
391  8553.373
390  8727.9878
389  8931.3949
388  8658.6193
387  8884.1321
386  8811.1972
385  9032.6517
384  8584.9695
383  8875.3624
382  8788.3854
381  8729.7911
380  8951.7241
379  8962.7802
378  8674.3723
377  9188.1984
376  9394.1235
375  8901.6249
374  9111.9076
373  9392.655
372  9111.383
371  9139.5473
370  9180.5471
369  8731.1262
368  9128.7995
367  9041.4053
366  9072.7306
365  9049.6698
364  9051.5468
363  9190.1675
362  8999.8942
361  8856.3849
360  8924.7136
359  9231.2562
358  9299.2719
357  9372.7091
356  9322.0461
355  9035.7928
354  9162.7331
353  8823.4015
352  9315.8089
351  8940.1545
350  8895.2742
349  9186.5627
348  9049.2054
347  9303.9924
346  9430.5199
345  8991.1667
344  9541.9789
343  9604.0747
342  9201.776
341  9079.1128
340  9177.665
339  9218.6094
338  9488.08
337  9446.42
336  9389.2739
335  9405.6283
334  9459.4939
333  9011.199
332  9035.0939
331  9127.5309
330  8934.4217
329  9104.0149
328  9165.5041
327  8923.1936
326  9522.6553
325  9093.8481
324  9306.8659
323  9424.5813
322  9729.3905
321  9794.4521
320  10266.42
319  9913.2475
318  9812.2978
317  9494.3255
316  9282.8732
315  9304.4812
314  9525.1829
313  9552.2414
312  9510.9691
311  9262.7001
310  9228.7323
309  9625.897
308  9849.3884
307  9314.9315
306  9178.19
305  9550.2294
304  9351.3895
303  9470.398
302  9780.9917
301  9573.271
300  9187.0435
299  9802.797
298  9847.3553
297  9533.8519
296  9583.4261
295  9966.8584
294  10055.798
293  10029.193
292  9713.8591
291  9582.4274
290  9681.5469
289  9770.9331
288  9797.2514
287  9764.5281
286  9488.8334
285  9757.0935
284  10369.574
283  9843.4845
282  10056.814
281  9959.2725
280  9924.6487
279  9975.6991
278  10073.531
277  10033.239
276  9782.3794
275  9861.7091
274  10152.165
273  10100.808
272  9837.9216
271  10064.521
270  9855.0233
269  9828.9484
268  9890.4576
267  9825.3874
266  10309.155
265  10649.872
264  10261.399
263  10098.929
262  10527.565
261  10760.027
260  10783.714
259  10161.053
258  10519.667
257  10485.496
256  9971.5082
255  9818.6636
254  10118.735
253  10279.648
252  10409.392
251  10135.488
250  10395.071
249  10280.286
248  10155.143
247  9855.0269
246  9922.9246
245  10612.856
244  11373.84
243  10868.323
242  12833.681
241  11419.833
240  9969.3144
239  10048.432
238  10305.251
237  10086.212
236  9913.9061
235  10359.728
234  10321.026
233  10266.036
232  10194.744
231  10450.564
230  10661.679
229  10801.994
228  10758.559
227  10712.288
226  10661.5
225  10295.923
224  10331.917
223  10100.419
222  10169.856
221  10258.365
220  10746.676
219  10529.719
218  9829.0712
217  10447.216
216  10476.909
215  10605.776
214  10667.093
213  10768.987
212  10592.415
211  10973.729
210  10716.201
209  10252.534
208  10431.919
207  10473.131
206  10682.303
205  10909.035
204  10731.931
203  10913.085
202  11334.441
201  11046.168
200  10880.884
199  10879.945
198  10841.235
197  10847.822
196  11072.284
195  10580.416
194  10937.744
193  10889.096
192  11320.398
191  10982.949
190  10798.035
189  11272.537
188  11556.911
187  11386.014
186  11637.312
185  11271.73
184  11244.355
183  11512.605
182  11285.764
181  10800.472
180  10709.466
179  11147.274
178  11497.135
177  11161.813
176  11276.205
175  11206.655
174  11400.913
173  11938.521
172  12084.199
171  12076.807
170  12271.753
169  13198.237
168  12574.017
167  11956.611
166  11095.86
165  10886.769
164  10290.995
163  9548.9572
162  9168.8502
161  9155.483
160  9204.5817
159  8922.6737
158  9595.2673
157  10376.687
156  12985.457
155  16724.86
154  20041.606
153  20237.111
152  21138.501
151  24338.331
150  18220.62
149  9709.9357
148  7335.0582
147  6582.5711
146  6241.2347
145  6265.1826
144  6330.3715
143  6092.9026
142  5913.2272
141  5859.0335
140  6212.4737
139  6222.9605
138  6282.5082
137  6189.3042
136  6152.6811
135  5862.9777
134  5866.9636
133  6245.3786
132  5869.3243
131  5668.4596
130  5720.4284
129  5914.9446
128  5532.8223
127  5754.8702
126  5713.4017
125  5803.7355
124  5776.8849
123  5962.661
122  6132.8883
121  6266.3767
120  6411.4307
119  6706.0108
118  7043.4939
117  7102.4268
116  6943.2948
115  6018.2417
114  4851.2762
113  4675.978
112  4062.5968
111  3858.1042
110  3622.8821
109  3228.1045
108  3070.9688
107  3105.6456
106  3377.4665
105  5590.9622
104  10603.684
103  14357.318
102  13164.578
101  12582.311
100  19008.616
99  16093.438
98  2710.5223
97  922.17909
96  842.05156
95  770.71851
94  725.86716
93  702.52829
92  668.90276
91  813.37972
90  763.67859
89  755.68434
88  741.87444
87  697.71193
86  649.61216
85  682.55827
84  641.88518
83  753.66605
82  776.62657
81  742.70407
80  724.28359
79  675.36555
78  866.50702
77  775.95383
76  639.65108
75  772.9909
74  838.37395
73  765.32942
72  735.82796
71  743.95201
70  750.09864
69  712.71907
68  810.6465
67  832.1375
66  899.61974
65  884.32339
64  891.36608
63  914.03754
62  868.2833
61  821.45745
60  882.12112
59  859.7798
58  902.09047
57  981.84327
56  885.73497
55  832.33998
54  833.52946
53  917.28737
52  859.94787
51  925.03701
50  909.04569
49  900.21486
48  997.46775
47  956.96842
46  916.21325
45  898.73056
44  974.3237
43  870.53875
42  1050.5002
41  1006.8042
40  928.36288
39  849.09837
38  872.53313
37  881.62854
36  801.7671
35  852.03496
34  827.53984
33  1028.444
32  998.0527
31  990.94298
30  1094.3335
29  1322.102
28  1555.7015
27  1929.989
26  2344.6049
25  2352.5801
24  2081.4544
23  1521.3666
22  994.92869
21  747.80556
20  662.98138
19  500.50177
18  457.82992
17  393.04396
16  400.73201
15  683.77791
14  881.82022
13  948.16739
12  942.19542
11  973.60914
10  1216.5166
9  1293.6602
8  1141.6884
7  953.10909
6  790.7696
5  677.89381
4  563.02588
3  676.90875
2  514.25848
1  248.57567
0  54.33189