# Region:            Survey 40 s 3k 36uA H=5
# Acquisition Date:  11/07/19 17:44:39 UTC
# Analysis Method:   XPS
# Analyzer:          Phoibos
# Analyzer Lens:     MediumArea:1.5kV
# Analyzer Slit:     4:3x20\B:open
# Scan Mode:         FixedAnalyzerTransmission
# Curves/Scan:       1
# Values/Curve:      1301
# Dwell Time:        0.1
# Excitation Energy: 1486.71
# Binding Energy:    1300
# Pass Energy:       50
# Bias Voltage:      90
# Detector Voltage:  1900
# Eff. Workfunction: 4.395
# Source:            Focus
# Comment:           
#
# Cycle: 0
# Number of Scans: 2
#
# Cycle: 0, Curve: 0
# Acquisition Date: 11/07/19 17:44:39 UTC
#
# ColumnLabels: energy counts/s
#
1300  16365.652
1299  15984.837
1298  16104.288
1297  16196.552
1296  16492.943
1295  16067.132
1294  16052.464
1293  16518.63
1292  16165.591
1291  16484.536
1290  16723.758
1289  16045.924
1288  15936.62
1287  16551.886
1286  16065.879
1285  16785.665
1284  16449.348
1283  16437.991
1282  16491.276
1281  16374.678
1280  16162.299
1279  16356.406
1278  16751.697
1277  16642.815
1276  16220.112
1275  16837.957
1274  16390.158
1273  16666.017
1272  16623.775
1271  16624.157
1270  16484.053
1269  16767.872
1268  16652.109
1267  16688.811
1266  16675.318
1265  16924.438
1264  17049.219
1263  16632.871
1262  17194.319
1261  16701.779
1260  17154.16
1259  16315.133
1258  16452.465
1257  16836.921
1256  16799.401
1255  16897.228
1254  16783.119
1253  17115.1
1252  17171.811
1251  16707.109
1250  17148.763
1249  17310.727
1248  17312.73
1247  17359.156
1246  17183.813
1245  17173.849
1244  17255.657
1243  17625.257
1242  17316.562
1241  17336.583
1240  17057.595
1239  17656.803
1238  17835.762
1237  18001.164
1236  17978.354
1235  17583.367
1234  17408.699
1233  17759.717
1232  17494.58
1231  18222.128
1230  18291.172
1229  18879.685
1228  18402.945
1227  18637.665
1226  18620.389
1225  18399.971
1224  18360.139
1223  17882.771
1222  18194.592
1221  18127.361
1220  17489.809
1219  17056.367
1218  17326.387
1217  17328.735
1216  17083.501
1215  16132.494
1214  16299.361
1213  16103.871
1212  15833.25
1211  16047.621
1210  15926.527
1209  15486.714
1208  15668.265
1207  16346.825
1206  15955.81
1205  15758.208
1204  15447.267
1203  15741.166
1202  15732.684
1201  16067.225
1200  16239.029
1199  15905.309
1198  15908.201
1197  15779.519
1196  16675.514
1195  16106.374
1194  16162.321
1193  15628.175
1192  15356.055
1191  15694.04
1190  15566.812
1189  15419.281
1188  15603.421
1187  15622.825
1186  15905.914
1185  15309.694
1184  15535.781
1183  15944.387
1182  15546.593
1181  15354.086
1180  15629.46
1179  15610.882
1178  15931.283
1177  16143.311
1176  15735.839
1175  15653.831
1174  15562.041
1173  15476.075
1172  15985.008
1171  15527.278
1170  15881.338
1169  15961.237
1168  15816.923
1167  15514.68
1166  15917.991
1165  15692.581
1164  15924.316
1163  15967.865
1162  15921.668
1161  16136.525
1160  16518.049
1159  15867.579
1158  15828.832
1157  15899.857
1156  15753.431
1155  16191.502
1154  16102.492
1153  16405.638
1152  16292.513
1151  15618.928
1150  15598.541
1149  16049.578
1148  16107.551
1147  16404.423
1146  15781.338
1145  15870.121
1144  16126.5
1143  15707.315
1142  16165.32
1141  16238.341
1140  16371.577
1139  16008.524
1138  16301.844
1137  16115.627
1136  15977.252
1135  16198.511
1134  16033.023
1133  16012.978
1132  16373.678
1131  16217.978
1130  16164.176
1129  16548.216
1128  16292.656
1127  15920.716
1126  16241.335
1125  16055.789
1124  16259.682
1123  16214.195
1122  16101.929
1121  16322.952
1120  16220.667
1119  16126.337
1118  16146.852
1117  15688.684
1116  16098.941
1115  16453.096
1114  16146.053
1113  16344.889
1112  16350.139
1111  16370.369
1110  16728.492
1109  16009.389
1108  16279.187
1107  16410.99
1106  16166.36
1105  15971.115
1104  16320.666
1103  16254.328
1102  16596.24
1101  16399.669
1100  16140.416
1099  16297.644
1098  16168.411
1097  16521.489
1096  16853.433
1095  16805.212
1094  16999.794
1093  16717.884
1092  16598.135
1091  16406.763
1090  16444.261
1089  16534.277
1088  16630.008
1087  16946.938
1086  16355.153
1085  16738.689
1084  16747.875
1083  16288.947
1082  16408.311
1081  16925.356
1080  16472.443
1079  16495.044
1078  16366.46
1077  16790.009
1076  16968.241
1075  17449.998
1074  17694.001
1073  18203.09
1072  17879.841
1071  17181.739
1070  17247.587
1069  17335.283
1068  17055.381
1067  16874.988
1066  16975.648
1065  16878.026
1064  17084.579
1063  16890.457
1062  17211.291
1061  16905.159
1060  17319.587
1059  17316.956
1058  17109.378
1057  17375.729
1056  17669.167
1055  17222.86
1054  17345.647
1053  17045.443
1052  16999.927
1051  16862.677
1050  16904.176
1049  17786.554
1048  17823.21
1047  17574.308
1046  17654.207
1045  17064.107
1044  17413.43
1043  17324.548
1042  17256.535
1041  17499.893
1040  17537.424
1039  17906
1038  17565.618
1037  18151.721
1036  18033.486
1035  17741.178
1034  17739.62
1033  17788.429
1032  17846.602
1031  17458.427
1030  17998.93
1029  17879.351
1028  18306.486
1027  17973.784
1026  18701.983
1025  18640.094
1024  18589.676
1023  17953.87
1022  18280.265
1021  18556.662
1020  18510.114
1019  18837.753
1018  18710.083
1017  18711.693
1016  18561.571
1015  18422.356
1014  17893.863
1013  17974.427
1012  17769.96
1011  18108.838
1010  18032.961
1009  17911.363
1008  18475.473
1007  19029.872
1006  19470.121
1005  19146.166
1004  19894.609
1003  20934.982
1002  20526.471
1001  19918.305
1000  19367.295
999  18944.208
998  18034.95
997  17923.287
996  17810.741
995  17397.187
994  17212.702
993  16352.077
992  15799.138
991  16089.195
990  16442.63
989  16752.81
988  16556.469
987  17281.389
986  17826.398
985  19488.155
984  20669.545
983  21908.799
982  22711.396
981  23862.943
980  23338.824
979  21912.509
978  19410.341
977  17666.947
976  16205.255
975  14676.428
974  14018.081
973  13193.191
972  11970.084
971  11532.263
970  11425.193
969  10702.983
968  10253.912
967  9586.1507
966  9633.3567
965  9635.9235
964  9758.4087
963  9715.1151
962  9468.1479
961  9404.9746
960  9457.4743
959  9397.1885
958  9521.8295
957  9518.6226
956  9254.4603
955  9421.3995
954  9366.9243
953  8983.4962
952  9713.1737
951  9954.3969
950  9735.4228
949  9647.9482
948  9628.1691
947  9398.7919
946  9894.8658
945  9939.3661
944  9795.6211
943  9519.5216
942  9771.3575
941  10065.5
940  9992.5283
939  9598.6589
938  9562.073
937  9343.6649
936  9617.0983
935  9842.7639
934  10010.771
933  9860.9789
932  10033.807
931  9658.9362
930  9794.6395
929  9663.2525
928  10113.737
927  10090.966
926  10144.854
925  9970.4995
924  10278.155
923  10323.21
922  10440.85
921  10339.428
920  10275.535
919  10182.339
918  10634.724
917  10622.133
916  10615.082
915  10017.571
914  10018.871
913  10226.793
912  10517.96
911  10324.213
910  10583.436
909  10342.834
908  10241.474
907  10238.632
906  10038.65
905  10223.146
904  10471.223
903  10822.498
902  10988.561
901  10545.463
900  10359.463
899  10601.768
898  10352.237
897  10598.345
896  10609.642
895  10696.814
894  11147.611
893  10785.604
892  10859.164
891  10695.855
890  10665.292
889  11196.63
888  11218.438
887  10752.263
886  11002.401
885  11227.37
884  11099.617
883  10878.084
882  10901.774
881  10666.723
880  10747.059
879  10795.195
878  11139.846
877  11412.729
876  11367.954
875  10905.452
874  11063.912
873  11302.996
872  11584.264
871  11478.899
870  11472.069
869  11540.894
868  11561.058
867  11653.659
866  11334.081
865  11135.51
864  11279.62
863  11414.422
862  11196.296
861  11423.208
860  11570.203
859  11589.669
858  11522.902
857  11486.937
856  11601.292
855  11540.238
854  11738.297
853  12002.354
852  11703.807
851  11693.169
850  11474.251
849  11853.028
848  11935.051
847  11913.313
846  11936.746
845  12032.237
844  11769.162
843  11738.207
842  11655.252
841  11540.889
840  11906.927
839  11781.545
838  11732.886
837  12057.817
836  11678.901
835  11988.471
834  12162.779
833  12004.527
832  12662.534
831  12217.28
830  12315.072
829  12499.647
828  12380.365
827  12377.8
826  12047.21
825  12185.299
824  12249.749
823  12201.866
822  12226.082
821  12296.403
820  12523.463
819  12451.534
818  12366.793
817  12602.672
816  12232.621
815  12575.733
814  12670.336
813  12473.422
812  12723.662
811  12740.013
810  12544.236
809  12699.768
808  12558.246
807  12765.982
806  12867.311
805  12490.385
804  12307.266
803  12279.098
802  12873.198
801  12513.205
800  12734.301
799  12292.956
798  12487.393
797  13187.586
796  13242.102
795  13089.538
794  13050.735
793  13311.74
792  12859.499
791  13162.119
790  12979.736
789  13113.595
788  13560.981
787  13446.932
786  13352.222
785  13289.214
784  13106.733
783  13578.266
782  13722.6
781  13540.638
780  13621.026
779  13664.557
778  13439.811
777  13759.779
776  13494.024
775  13337.873
774  13728.724
773  13274.759
772  13614.349
771  13622.578
770  13424.588
769  13813.859
768  14026.504
767  13952.671
766  13746.805
765  13719.873
764  13919.3
763  13552.222
762  13506.088
761  13612.575
760  14065.25
759  14017.751
758  14133.266
757  13710.173
756  13728.718
755  13854.044
754  14223.927
753  14212.29
752  13884.236
751  13706.801
750  14152.232
749  14251.67
748  14220.132
747  14079.365
746  14291.148
745  14236.062
744  14180.316
743  14489.866
742  14504.02
741  14115.017
740  14154.108
739  14425.074
738  14747.037
737  14480.621
736  14435.572
735  14529.444
734  14484.574
733  13878.062
732  14728.631
731  14734.938
730  14637.922
729  14162.946
728  14774.777
727  14439.667
726  14402.446
725  14788.22
724  15079.448
723  14867.412
722  14754.97
721  14468.469
720  14262.498
719  14521.152
718  14736.307
717  14304.194
716  14131.346
715  14987.353
714  14776.39
713  15050.324
712  15201.423
711  14755.072
710  14875.788
709  14714.301
708  15129.639
707  15200.948
706  15328.157
705  15272.662
704  15437.145
703  15121.314
702  15225.596
701  15078.031
700  15041.293
699  15368.352
698  15108.379
697  15220.088
696  15184.859
695  15259.616
694  15499.047
693  15534.751
692  15293.22
691  15458.355
690  15704.145
689  15685.752
688  15434.599
687  15696.432
686  16045.836
685  16034.809
684  15596.734
683  15208.306
682  15356.318
681  15836.89
680  15627.6
679  15562.384
678  15443.715
677  15603.882
676  15697.592
675  15456.907
674  15747.062
673  16036.331
672  16535.414
671  15809.248
670  15768.924
669  16179.307
668  15773.887
667  16367.567
666  16451.363
665  15651.998
664  15782.822
663  16452.672
662  16762.543
661  16512.155
660  16528.337
659  16256.142
658  16080.966
657  16348.029
656  16469.125
655  16562.543
654  16258.458
653  16005.631
652  16244.131
651  16609.115
650  16372.183
649  16630.359
648  17034.257
647  16465.241
646  16737.531
645  16388.729
644  16470.179
643  16396.321
642  16803.381
641  16790.799
640  16315.466
639  16597.43
638  16845.585
637  16520.124
636  16728.445
635  16707.314
634  16763.235
633  16979.768
632  16779.555
631  17063.169
630  16957.446
629  17175.522
628  17135.914
627  16810.998
626  16994.01
625  16940.167
624  17388.105
623  17445.679
622  17383.216
621  17677.756
620  17401.581
619  17316.95
618  17652.695
617  17137.087
616  17710.569
615  17516.213
614  17454.889
613  17517.059
612  17637.975
611  17707.852
610  17286.208
609  17646.326
608  17738.469
607  17440.1
606  17433.388
605  17847.321
604  17468.271
603  18034.318
602  17785.901
601  17835.092
600  17800.637
599  17734.973
598  17454.91
597  17524.319
596  17644.338
595  17428.658
594  17657.242
593  17563.213
592  18065.112
591  18246.145
590  18315.041
589  18258.91
588  17946.139
587  18614.449
586  18380.698
585  18356.061
584  18479.982
583  18615.024
582  18579.182
581  18260.945
580  18258.115
579  17975.096
578  18265.064
577  18213.08
576  18237.409
575  18349.53
574  18307.733
573  18009.762
572  17777.225
571  17872.619
570  17569.664
569  17183.11
568  16649.397
567  16663.98
566  17251.054
565  17370.254
564  17707.148
563  18129.729
562  18877.234
561  19577.352
560  20554.905
559  21484.635
558  21341.797
557  21819.874
556  22358.756
555  21336.872
554  19788.975
553  18951.911
552  17338.775
551  16412.646
550  16044.915
549  15574.161
548  14341.649
547  13065.017
546  12664.079
545  11750.015
544  10375.01
543  9223.0906
542  8292.5935
541  7834.9324
540  7983.5479
539  7953.318
538  9201.6093
537  11855.933
536  17784.024
535  46195.22
534  101905.68
533  87231.411
532  28753.3
531  10892.13
530  7336.8314
529  6263.318
528  6501.5
527  5875.1305
526  6132.7813
525  5946.4264
524  5714.5576
523  5654.1785
522  5693.0531
521  5722.3281
520  5826.2145
519  5689.849
518  5523.6782
517  5718.3757
516  5971.1902
515  5669.3981
514  5756.5128
513  5634.2264
512  5759.4088
511  5781.8939
510  5596.2805
509  5780.6984
508  5740.8973
507  5369.6077
506  5473.3674
505  5697.0404
504  5786.5108
503  5965.6441
502  6072.6391
501  6094.1858
500  6237.3506
499  6348.7369
498  6177.7219
497  5752.5736
496  5746.9705
495  5814.2629
494  5909.308
493  5786.5469
492  5797.6689
491  6051.0958
490  5870.6246
489  5673.683
488  5677.13
487  5663.5501
486  5771.8121
485  5579.6569
484  5570.3371
483  5455.4703
482  5601.3973
481  5657.9652
480  5648.7781
479  6010.9529
478  5737.3025
477  5565.1091
476  5814.2282
475  5847.5407
474  5650.7762
473  5992.4242
472  5762.1616
471  5918.7062
470  5908.363
469  5660.1148
468  5679.5285
467  5644.0608
466  5806.0978
465  5920.858
464  5804.8572
463  5882.0442
462  5907.6427
461  5797.3289
460  5831.4879
459  5610.1347
458  5394.4726
457  5736.363
456  5610.0084
455  5808.7903
454  5884.0643
453  5978.945
452  5902.0787
451  5957.3902
450  5574.0089
449  5561.7661
448  5788.9179
447  5756.8425
446  5795.1144
445  5577.2452
444  5612.4624
443  5865.9341
442  6038.9383
441  6023.6192
440  6195.184
439  6164.8192
438  6097.6261
437  5627.4051
436  5532.764
435  5670.6286
434  5822.6267
433  5882.8802
432  5869.8872
431  6117.1317
430  5995.6014
429  5911.7183
428  5963.1713
427  6195.6232
426  5983.119
425  5662.1772
424  5911.674
423  5625.2576
422  5833.2002
421  5841.7245
420  6096.6139
419  5750.9951
418  5863.4149
417  5846.7778
416  6130.2264
415  5914.9094
414  5993.4935
413  5936.1784
412  5793.6567
411  5730.7472
410  5901.6913
409  5490.2129
408  5739.1763
407  5953.7942
406  6042.5321
405  5647.5476
404  5782.0966
403  6026.5488
402  5827.4648
401  6207.294
400  6607.5182
399  6317.4892
398  6332.4748
397  6098.7859
396  5813.8455
395  6061.6329
394  6375.8759
393  5975.7952
392  6144.5051
391  6046.3497
390  6192.4245
389  5855.5567
388  5604.9708
387  5867.0871
386  5810.7877
385  5931.4986
384  6091.6763
383  6188.0689
382  5824.7592
381  6071.8954
380  6275.4956
379  6029.219
378  5674.5682
377  5704.8565
376  5772.8084
375  6210.5407
374  6011.6027
373  5926.7013
372  6209.0375
371  6149.537
370  5925.9368
369  6285.275
368  6159.1164
367  5992.9963
366  6247.4381
365  5853.4644
364  6022.0304
363  6289.7459
362  6222.6754
361  6146.6336
360  6211.5712
359  6227.8114
358  6336.0022
357  5945.9983
356  6193.2979
355  6155.5901
354  6332.2957
353  6231.8036
352  6510.1177
351  6619.8987
350  6474.4286
349  6829.4281
348  6820.3094
347  6301.8279
346  6032.5659
345  6036.877
344  6063.101
343  6463.2452
342  6221.7132
341  6087.759
340  6227.795
339  5937.2023
338  6387.6373
337  6188.644
336  6313.0752
335  6214.7542
334  6485.1577
333  6447.8266
332  6587.2053
331  6112.9943
330  6327.0406
329  6004.5766
328  6141.4346
327  6214.0365
326  6143.0062
325  6484.9157
324  6553.6031
323  6422.463
322  6410.2977
321  6574.2403
320  6374.8946
319  6868.6423
318  6609.6277
317  6726.3674
316  6541.9804
315  6562.5036
314  6230.6091
313  6606.7869
312  6281.7372
311  6658.1216
310  6526.7983
309  6664.2225
308  6807.2848
307  6766.3024
306  6744.5009
305  6758.5467
304  6458.0831
303  6469.8428
302  6554.4916
301  6390.6899
300  6375.1769
299  6399.0571
298  6298.8703
297  6333.1661
296  6387.4578
295  6712.929
294  6483.5004
293  6266.1632
292  6183.2334
291  6403.4473
290  6650.8204
289  6901.0139
288  7793.6032
287  9610.5174
286  14281.815
285  14729.549
284  8525.843
283  6282.3777
282  5908.6663
281  6071.7368
280  5888.5272
279  5830.1449
278  5581.514
277  5986.6317
276  5719.2574
275  5862.0115
274  5808.676
273  5759.5309
272  5778.9769
271  5548.8307
270  5631.4899
269  5705.7514
268  5755.1008
267  5705.7287
266  5684.2924
265  5432.6548
264  5862.1829
263  5715.9022
262  5717.3278
261  5703.5862
260  5716.7608
259  5806.4898
258  5829.6982
257  5690.9638
256  5741.7876
255  5723.0497
254  5664.1446
253  5905.9642
252  5665.4701
251  5493.512
250  5601.1299
249  5515.2838
248  5658.0467
247  5475.7208
246  5596.7389
245  5903.5129
244  6391.4271
243  6074.5901
242  5780.7141
241  5688.5366
240  5559.498
239  5590.4186
238  5606.3582
237  5694.4105
236  5557.0544
235  5788.7206
234  5599.6604
233  5822.4492
232  5774.8928
231  5773.5956
230  5898.7311
229  5851.4149
228  5822.9308
227  5591.7134
226  5657.6279
225  5834.4433
224  5810.3959
223  5621.2012
222  5906.678
221  5734.4028
220  5653.8252
219  5941.8198
218  5935.4781
217  5874.529
216  5822.6234
215  5917.3406
214  5840.0332
213  5931.4289
212  5929.2205
211  6086.5332
210  5826.6322
209  5851.9559
208  5782.5867
207  6068.9389
206  5933.1004
205  6036.3384
204  5997.5743
203  6117.7481
202  6155.1735
201  5964.0537
200  6147.1224
199  6111.1505
198  6099.4927
197  6184.3935
196  6260.9352
195  6007.1688
194  5963.1065
193  6190.8353
192  5816.8425
191  5942.0014
190  6167.9354
189  6087.4884
188  6039.135
187  6030.3874
186  6174.7287
185  6142.074
184  6191.9137
183  6439.6517
182  6800.3477
181  6718.2987
180  7117.3322
179  7172.5895
178  7041.0519
177  7002.4493
176  6793.1857
175  6737.3065
174  7010.1234
173  6720.9532
172  6228.9254
171  5945.9721
170  5811.3415
169  5591.9992
168  5203.7021
167  4984.6748
166  4596.047
165  4583.3946
164  4485.4523
163  4235.7978
162  4426.8639
161  4215.7035
160  4587.5934
159  5618.5949
158  7642.0912
157  12388.494
156  20434.476
155  22475.671
154  16061.923
153  9497.2546
152  6004.2144
151  4872.1748
150  4393.8321
149  4007.4091
148  4151.1194
147  3777.994
146  3778.3729
145  3700.717
144  3586.6383
143  3746.8525
142  3379.2617
141  3403.1784
140  3425.4408
139  3490.1799
138  3437.0487
137  3414.5135
136  3351.6183
135  3277.9327
134  3473.7508
133  3618.0659
132  3650.8394
131  3985.3387
130  4214.5197
129  4365.9171
128  4410.4712
127  4525.413
126  4190.2861
125  4308.4955
124  4125.6197
123  3922.6784
122  3861.195
121  3438.9858
120  3412.7433
119  3261
118  2681.4488
117  2538.3319
116  2453.4799
115  2144.2376
114  1887.9025
113  1601.7014
112  1512.4627
111  1412.2371
110  1385.241
109  1477.7931
108  2144.0549
107  3160.7863
106  7848.0733
105  20036.579
104  24210.985
103  12391.303
102  4437.0488
101  1856.6718
100  1210.2484
99  1102.2
98  1083.8466
97  1038.9248
96  1140.1365
95  1022.4603
94  989.82187
93  1159.626
92  1029.3542
91  1070.7083
90  1106.868
89  1142.636
88  989.54548
87  1003.6679
86  1005.2337
85  1029.3465
84  948.10174
83  1066.747
82  1089.3654
81  974.52756
80  1113.2977
79  1119.7341
78  1130.7405
77  1158.844
76  1130.7919
75  1085.9477
74  1120.084
73  1254.4187
72  1172.912
71  1083.9172
70  1116.1874
69  1063.4391
68  1051.8902
67  1162.3459
66  1199.3616
65  1123.7335
64  1113.7766
63  1136.561
62  1057.31
61  1077.1058
60  1084.8757
59  1197.7083
58  1063.1497
57  1159.6053
56  1191.1576
55  1144.5127
54  1237.2775
53  1356.8667
52  1460.7586
51  1397.7535
50  1300.9315
49  1513.7685
48  1322.2337
47  1134.0324
46  1301.4239
45  1345.0992
44  1223.6463
43  1001.0223
42  1012.4583
41  1005.14
40  977.36282
39  922.94921
38  807.79207
37  871.07541
36  928.7472
35  971.01126
34  960.48529
33  936.93867
32  1045.3664
31  1304.7447
30  1398.5551
29  1910.0823
28  2791.3328
27  3711.929
26  3985.8772
25  2918.5454
24  1379.544
23  672.36705
22  396.55177
21  308.8001
20  379.05489
19  299.94316
18  384.26532
17  555.62083
16  852.14874
15  1022.4351
14  888.76414
13  895.55929
12  928.57409
11  882.29687
10  874.42194
9  878.53556
8  897.50653
7  727.87632
6  306.38687
5  148.90262
4  85.059878
3  27.946225
2  7.94532
1  13.87033
0  9.350275