# Region:            Survey (2)
# Acquisition Date:  11/08/19 18:04:56 UTC
# Analysis Method:   XPS
# Analyzer:          Phoibos
# Analyzer Lens:     MediumArea:1.5kV
# Analyzer Slit:     4:3x20\B:open
# Scan Mode:         FixedAnalyzerTransmission
# Curves/Scan:       1
# Values/Curve:      1301
# Dwell Time:        0.1
# Excitation Energy: 1486.71
# Binding Energy:    1300
# Pass Energy:       50
# Bias Voltage:      90
# Detector Voltage:  1900
# Eff. Workfunction: 4.395
# Source:            Focus
# Comment:           Despues de decapado de otros 5 min
#
# Cycle: 0
# Number of Scans: 2
#
# Cycle: 0, Curve: 0
# Acquisition Date: 11/08/19 18:04:56 UTC
#
# ColumnLabels: energy counts/s
#
1300  13716.039
1299  13908.149
1298  14094.729
1297  14076.291
1296  13879.971
1295  13997.395
1294  13761.273
1293  13616.302
1292  14320.222
1291  14137.264
1290  13897.218
1289  13470.886
1288  13492.083
1287  13781.601
1286  13209.902
1285  13473.411
1284  13648.709
1283  13630.93
1282  13633.928
1281  13924.082
1280  13506.995
1279  13733.057
1278  13693.755
1277  13779.41
1276  13281.029
1275  13545.586
1274  13849.013
1273  14093.441
1272  13516.676
1271  13708.257
1270  13837.737
1269  13455.948
1268  13609.983
1267  13715.105
1266  13586.353
1265  13617.888
1264  13765.268
1263  14049.231
1262  13640.181
1261  13210.583
1260  13902.932
1259  13580.397
1258  13661.495
1257  13849.252
1256  13828.656
1255  13350.88
1254  13334.934
1253  13551.958
1252  13452.276
1251  13301.829
1250  13533.742
1249  13593.7
1248  13361.239
1247  13612.091
1246  13435.887
1245  13378.584
1244  13173.786
1243  13311.723
1242  13567.136
1241  13447.716
1240  13530.181
1239  14020.052
1238  13314.023
1237  13373.141
1236  13208.9
1235  13849.396
1234  13704.12
1233  13648.723
1232  13498.6
1231  13631.278
1230  13399.423
1229  13261.8
1228  13346.42
1227  13173.626
1226  13695.955
1225  13801.454
1224  13412.873
1223  13385.138
1222  13444.831
1221  13528.719
1220  13444.383
1219  13068.173
1218  13508.159
1217  13355.957
1216  13200.564
1215  13300.603
1214  12832.502
1213  13351.588
1212  13634.436
1211  13270.051
1210  13388.366
1209  13540.096
1208  13372.198
1207  13133.232
1206  13243.076
1205  13048.974
1204  13209.698
1203  13842.116
1202  13871.238
1201  13719.077
1200  13104.383
1199  13484.04
1198  13394.586
1197  13526.098
1196  13885.07
1195  13520.954
1194  13246.218
1193  13112.699
1192  12967.917
1191  13359.328
1190  13348.661
1189  13400.708
1188  13142.049
1187  13221.969
1186  13284.828
1185  13259.841
1184  13390.524
1183  13477.504
1182  13725.246
1181  13766.253
1180  13723.076
1179  13869.062
1178  13810.685
1177  13492.953
1176  13503.99
1175  13722.86
1174  13703.504
1173  13902.971
1172  13723.726
1171  13573.918
1170  14002.273
1169  14139.129
1168  13406.449
1167  13584.211
1166  13543.906
1165  13555.571
1164  13742.34
1163  13518.985
1162  14026.683
1161  13732.662
1160  14051.257
1159  13227.347
1158  13610.457
1157  13829.768
1156  14204.889
1155  13932.891
1154  13891.63
1153  13604.023
1152  13649.126
1151  13800.034
1150  14307.168
1149  13627.393
1148  13766.12
1147  13685.348
1146  13616.028
1145  13701.851
1144  13601.299
1143  13889.618
1142  13811.362
1141  13791.097
1140  14335.154
1139  14225.715
1138  13692.02
1137  13582.69
1136  13747.13
1135  13911.128
1134  14213.499
1133  13780.823
1132  13544.104
1131  13873.838
1130  14209.235
1129  14087.36
1128  13619.847
1127  13941.568
1126  14203.386
1125  14179.781
1124  13933.269
1123  13897.878
1122  14050.993
1121  14175.734
1120  14156.403
1119  13826.548
1118  14280.736
1117  14076.678
1116  14194.825
1115  14037.343
1114  13976.135
1113  14302.349
1112  14270.571
1111  14343.253
1110  14095.759
1109  14366.107
1108  14681.495
1107  14035.37
1106  14027.581
1105  13923.596
1104  13867.189
1103  14558.404
1102  14513.705
1101  14740.363
1100  14435.711
1099  14540.254
1098  14100.357
1097  14503.738
1096  14106.239
1095  13929.196
1094  14206.886
1093  14243.491
1092  14502.076
1091  14353.564
1090  14614.104
1089  13997.986
1088  14086.717
1087  14619.335
1086  14184.141
1085  14568.068
1084  14570.394
1083  14799.627
1082  14797.281
1081  14947.575
1080  15094.229
1079  14638.2
1078  14215.6
1077  14644.007
1076  14818.661
1075  14730.531
1074  14813.081
1073  15332.9
1072  14731.598
1071  14711.758
1070  15216.824
1069  14733.736
1068  15084.843
1067  14655.832
1066  15236.94
1065  15211.783
1064  15284.318
1063  15395.118
1062  15297.675
1061  15305.837
1060  15422.742
1059  15824.914
1058  14734.572
1057  14714.54
1056  15437.341
1055  15245.5
1054  15199.179
1053  14887.489
1052  15560.304
1051  15851.751
1050  15725.965
1049  15565.681
1048  15252.408
1047  15289.269
1046  15714.944
1045  16216.474
1044  16191.215
1043  16276.107
1042  16128.913
1041  16355.484
1040  15822.994
1039  15814.773
1038  16208.57
1037  15998.73
1036  16429.053
1035  16085.132
1034  16777.618
1033  16263.553
1032  16150.953
1031  16734.438
1030  16058.843
1029  16524.446
1028  16641.142
1027  17167.862
1026  16965.266
1025  16891.649
1024  17341.125
1023  16971.96
1022  17115.311
1021  17604.107
1020  17999.43
1019  17969.561
1018  18066.836
1017  18246.582
1016  17776.721
1015  17163.561
1014  16915.299
1013  17014.018
1012  17017.635
1011  17452.799
1010  17994.187
1009  17441.799
1008  18217.875
1007  19176.282
1006  19614.446
1005  19972.809
1004  20467.723
1003  20665.103
1002  21233.834
1001  20698.678
1000  19160.335
999  19046.812
998  18257.458
997  17793.271
996  17148.443
995  16372.631
994  16414.205
993  15710.911
992  15576.087
991  16258.725
990  16754.102
989  16916.699
988  17110.743
987  17791.77
986  19889.519
985  22110.963
984  23876.101
983  25764.298
982  28025.319
981  30029.384
980  27045.704
979  22775.341
978  20051.812
977  18060.799
976  16395.011
975  14558.616
974  13028.727
973  12105.502
972  11565.965
971  10662.158
970  9593.8293
969  8683.9619
968  7977.2595
967  7765.0136
966  7584.9632
965  7928.6444
964  7871.1484
963  7605.5757
962  7608.5825
961  7343.2814
960  7305.1313
959  7772.0703
958  7564.1112
957  7907.046
956  7975.7483
955  7535.8212
954  7623.2515
953  7686.5646
952  7787.6738
951  7617.6136
950  7439.9925
949  7424.9798
948  7804.4672
947  7523.2042
946  7877.1411
945  7584.7737
944  7545.0477
943  7555.7449
942  7409.9178
941  7643.2556
940  7659.6009
939  7840.1933
938  7984.2096
937  7934.3878
936  7829.8963
935  7694.1455
934  7891.0257
933  7863.5674
932  7813.706
931  8155.3074
930  7862.1078
929  8076.5562
928  8087.915
927  8109.0208
926  8131.5946
925  8169.4087
924  7945.8364
923  7947.1395
922  8239.5012
921  8131.7871
920  7953.2694
919  8013.4695
918  8273.7717
917  7804.6603
916  8120.8904
915  8188.3171
914  8109.0676
913  8169.8504
912  8263.7764
911  8437.3702
910  8147.4883
909  8242.3251
908  8329.3439
907  8580.3559
906  8092.246
905  7854.7394
904  8029.5359
903  8420.738
902  8637.9641
901  8244.4659
900  8533.091
899  8498.4066
898  8532.1402
897  8250.1619
896  8278.8974
895  8810.3175
894  8647.0101
893  8831.1967
892  8479.5643
891  8417.5619
890  8684.8106
889  8766.802
888  8497.1765
887  8613.465
886  8700.338
885  8703.6244
884  8684.5691
883  8472.1221
882  8378.5217
881  8737.9188
880  8678.164
879  8530.3741
878  8900.7271
877  8705.4669
876  8660.038
875  8560.054
874  8528.9054
873  8322.1703
872  8564.9878
871  8979.8411
870  8766.3432
869  8754.6974
868  9074.8384
867  9099.9956
866  8968.9077
865  9077.8861
864  9119.6712
863  9053.1628
862  9001.2056
861  9103.1665
860  9145.9888
859  8841.031
858  8870.9147
857  8906.3162
856  9270.9229
855  9483.3302
854  9209.0406
853  9191.2
852  9212.5325
851  9273.3269
850  9373.4421
849  9379.0717
848  9433.1276
847  9525.6908
846  9350.8086
845  9588.8083
844  9366.6926
843  9335.0871
842  9635.8661
841  9353.6412
840  9665.9081
839  9864.7921
838  9466.7462
837  9559.2132
836  9906.2851
835  9673.5714
834  9698.7819
833  9521.2495
832  9388.3746
831  9837.1469
830  9915.5861
829  9780.304
828  9787.9789
827  9582.0088
826  9886.3207
825  9370.1508
824  9830.192
823  10065.648
822  9941.5807
821  10013.03
820  10050.194
819  10145.484
818  9804.1936
817  9903.5853
816  9787.1642
815  10615.265
814  10300.846
813  9859.57
812  9966.409
811  10256.118
810  10406.137
809  10283.884
808  9941.625
807  10068.249
806  10326.29
805  10350.426
804  10368.383
803  10966.946
802  10325.968
801  10334.979
800  10376.12
799  10582.879
798  10622.194
797  10326.739
796  10251.672
795  10504.973
794  10600.676
793  10654.451
792  10609.529
791  10681.586
790  10754.159
789  10801.346
788  10643.715
787  10717.714
786  11001.408
785  10752.234
784  10718.047
783  10846.412
782  10828.012
781  10765.604
780  10677.688
779  10817.314
778  10835.641
777  10899.879
776  11396.537
775  11188.436
774  11176.644
773  11531.656
772  11250.17
771  10971.135
770  10762.247
769  11498.269
768  11154.202
767  11400.318
766  10923.193
765  10762.513
764  11388.111
763  11054.849
762  11596.888
761  11140.802
760  11478.622
759  10795.424
758  11324.389
757  11304.576
756  11669.243
755  11767.65
754  11552.863
753  11208.117
752  11760.783
751  11250.02
750  11258.537
749  11677.543
748  11664.184
747  11834.728
746  11569.586
745  11636.372
744  11793.74
743  11807.323
742  11880.592
741  11782.752
740  12137.094
739  12056.081
738  11868.606
737  12069.458
736  11855.338
735  11595.903
734  12365.257
733  11802.709
732  12094.365
731  12266.079
730  11936.937
729  12393.399
728  12309.821
727  12438.954
726  11979.491
725  12473.397
724  12699.926
723  12657.142
722  12558.141
721  12391.227
720  12554.086
719  12349.126
718  12272.216
717  12535.111
716  12871.405
715  12744.063
714  12616.992
713  12611.754
712  13184.028
711  12783.468
710  12949.399
709  12683.518
708  13123.987
707  12626.615
706  12843.901
705  12976.228
704  13338.815
703  12911.07
702  13337.414
701  13167.14
700  13001.961
699  13171.739
698  13375.803
697  13386.026
696  13170.771
695  12768.319
694  13276.465
693  13161.717
692  13497.863
691  12970.764
690  13061.849
689  13083.768
688  13392.573
687  13410.329
686  13348.587
685  13520.12
684  13880.933
683  13855.332
682  14124.492
681  13772.893
680  13751.842
679  14157.953
678  13915.242
677  14137.089
676  13701.548
675  13776.301
674  13990.964
673  13960.668
672  13999.662
671  14464.067
670  14392.117
669  14161.688
668  14462.527
667  14670.148
666  14677.965
665  14429.184
664  14418.125
663  14536.238
662  14576.458
661  14576.648
660  14606.839
659  14393.478
658  14484.407
657  14760.36
656  14931.763
655  15283.553
654  14775.975
653  14879.414
652  14819.064
651  14893.717
650  15020.316
649  15201.957
648  15317.532
647  15410.379
646  15613.787
645  15024.132
644  15102.271
643  15233.682
642  15540.959
641  15594.376
640  15468.507
639  15563.154
638  15207.184
637  15794.493
636  15607.632
635  15847.265
634  15752.552
633  15810.628
632  15584.241
631  15789.504
630  15942.521
629  16080.344
628  16386.622
627  16509.958
626  16141.493
625  16075.989
624  16498.03
623  16312.059
622  16468.142
621  16537.3
620  16628.391
619  17167.251
618  16987.529
617  16701.333
616  16789.987
615  16647.614
614  16821.629
613  16867.513
612  16977.592
611  16879.25
610  16816.659
609  17174.063
608  17275.028
607  17676.662
606  17282.497
605  17087.084
604  17212.048
603  17420.889
602  17472.973
601  17307.049
600  17597.51
599  17327.408
598  17436.511
597  17916.446
596  17421.217
595  17973.383
594  17948.211
593  17585.754
592  18069.872
591  18135.547
590  18682.105
589  18254.549
588  18039.235
587  18870.606
586  19036.856
585  18578.874
584  18981.051
583  19267.677
582  18845.815
581  18733.325
580  18977.647
579  18860.313
578  18796.649
577  18681.414
576  18514.016
575  18224.427
574  18568.857
573  18622.763
572  18697.591
571  18410.087
570  18046.886
569  17552.225
568  17478.17
567  17203.727
566  18112.197
565  18906.056
564  19267.144
563  19707.437
562  20546.842
561  20880.068
560  21993.336
559  23010.453
558  23713.829
557  23916.444
556  23370.756
555  21977.876
554  20559.081
553  19473.897
552  18493.015
551  16952.851
550  16605.725
549  15923.51
548  14989.876
547  14288.048
546  13366.367
545  12317.103
544  11133.73
543  9844.1519
542  9438.647
541  9345.4923
540  8812.5435
539  8750.8203
538  9628.8819
537  12403.634
536  28089.592
535  89902.63
534  142514.19
533  74315.149
532  19609.234
531  9673.1488
530  7908.7328
529  7265.0282
528  7029.4893
527  7212.2154
526  7109.3415
525  7111.4433
524  6739.467
523  7044.8779
522  7041.3079
521  6824.056
520  6622.3793
519  7063.0399
518  7070.3872
517  7024.8605
516  6975.7387
515  6990.2605
514  6778.4721
513  6684.0141
512  6825.8336
511  6911.6924
510  6796.846
509  6955.8097
508  6955.6503
507  6585.1478
506  6649.9227
505  6692.2929
504  6895.6096
503  6943.5806
502  6901.4453
501  6973.4591
500  6885.4524
499  7044.2991
498  6795.3683
497  6981.1529
496  7185.6724
495  6955.5384
494  7104.3493
493  6952.5522
492  7104.4954
491  6974.1685
490  6670.9908
489  6698.2718
488  6901.9858
487  6924.0648
486  6825.3921
485  6825.823
484  6856.9947
483  7004.7342
482  7279.2218
481  6642.1256
480  6999.8537
479  6805.1746
478  6989.2369
477  6988.6717
476  7121.9393
475  7076.7165
474  7012.7083
473  7239.3432
472  7173.1723
471  7268.3876
470  7284.5303
469  6896.423
468  6850.7249
467  7272.2392
466  7036.7356
465  7104.2876
464  7104.0707
463  7237.4669
462  7204.4521
461  7227.9996
460  7014.363
459  7173.285
458  6959.8697
457  7103.8829
456  7320.9922
455  7264.0083
454  7356.671
453  7111.8499
452  7075.5523
451  7055.4401
450  7413.7694
449  7332.3339
448  7140.6174
447  7535.0942
446  7259.2466
445  7335.9906
444  7069.1234
443  7194.1583
442  7331.7235
441  7253.8156
440  7169.041
439  7141.0894
438  7432.8947
437  7144.0863
436  7080.1507
435  7571.2737
434  7328.1416
433  7538.1156
432  7395.6791
431  7064.9714
430  6918.8062
429  7541.5389
428  7294.3265
427  7309.1769
426  7374.3207
425  7235.9956
424  7403.9475
423  7853.6365
422  7563.5948
421  7203.0013
420  7165.3846
419  7196.6553
418  7382.6621
417  7264.9317
416  7299.7583
415  7304.4685
414  7532.3582
413  7636.9427
412  7840.7185
411  7594.4737
410  7746.1832
409  7179.7379
408  7183.7709
407  7234.2446
406  7279.6854
405  7506.6164
404  7469.8322
403  7301.172
402  7638.196
401  7839.2694
400  8152.9272
399  7922.851
398  7484.8027
397  7507.7155
396  7834.6232
395  7509.6162
394  7752.8809
393  7803.4494
392  7521.0696
391  7316.753
390  7279.4941
389  7372.0666
388  7406.5205
387  7362.8942
386  7720.6017
385  7592.6526
384  7827.3312
383  7469.5216
382  7430.5738
381  7790.6846
380  7970.2164
379  7781.9935
378  7581.5647
377  7780.8223
376  7640.0858
375  7718.7518
374  7637.0838
373  7621.35
372  7683.7711
371  7386.9988
370  7982.3189
369  7991.2769
368  7607.3206
367  7461.4529
366  7651.5863
365  7446.6347
364  7580.5633
363  7834.1416
362  7933.5552
361  7669.2891
360  8018.1837
359  7738.8857
358  7827.3725
357  7872.6645
356  7793.2277
355  7900.7531
354  8148.4722
353  8050.2221
352  8248.8197
351  8123.6494
350  7982.963
349  7695.8218
348  7841.5748
347  8199.602
346  7870.3887
345  7742.219
344  7607.5989
343  7804.7889
342  7815.379
341  7483.505
340  7518.1862
339  7893.0848
338  7765.8792
337  8034.1427
336  7901.7917
335  8082.5138
334  8045.019
333  7933.0481
332  7782.1896
331  7551.1408
330  7841.6649
329  7887.4507
328  7892.8705
327  7622.3003
326  7764.8289
325  7852.4943
324  7653.6692
323  7618.8949
322  7976.7457
321  8377.4191
320  8330.4114
319  7799.3962
318  7723.3051
317  7634.4586
316  7650.4025
315  7743.4447
314  7892.3566
313  7730.9539
312  7672.1921
311  7836.1886
310  7796.2758
309  7501.8378
308  8120.4909
307  7513.201
306  7637.8122
305  7735.8173
304  7543.6598
303  7515.5207
302  7431.0082
301  7482.6883
300  7555.6226
299  7673.8812
298  7842.5061
297  7623.5731
296  7751.4494
295  7850.7831
294  7794.2586
293  7676.7794
292  8112.5294
291  7690.1196
290  7538.6754
289  7630.2414
288  7671.3058
287  7537.8274
286  7730.4348
285  8051.2197
284  7664.4796
283  7432.3211
282  7492.8724
281  7820.5626
280  7560.2261
279  7279.7648
278  7372.0995
277  7638.6749
276  7782.478
275  7983.325
274  7699.3829
273  7448.8203
272  7571.0582
271  7564.9414
270  7801.9033
269  7913.4134
268  7807.5252
267  7910.3347
266  7498.8398
265  7506.7994
264  7900.073
263  7994.7634
262  8049.8547
261  7828.7644
260  7836.0284
259  7765.9826
258  8109.0304
257  7755.5501
256  7746.6477
255  7425.511
254  7517.8938
253  7838.235
252  7589.5626
251  7415.683
250  7398.9621
249  7668.5687
248  7715.4853
247  7570.9766
246  8077.3505
245  8430.2746
244  8586.0651
243  8867.4503
242  7924.6933
241  7380.6032
240  7065.1467
239  7477.2523
238  7158.0478
237  7273.0526
236  7417.4179
235  7408.5856
234  7450.1479
233  7059.9384
232  7528.588
231  7434.8039
230  7235.9134
229  7301.8926
228  7387.5524
227  7567.5016
226  7324.0626
225  7363.1579
224  7299.8601
223  7342.3101
222  7094.9031
221  6935.822
220  7261.3302
219  7186.5292
218  7542.1196
217  7544.709
216  7389.0161
215  7503.2918
214  7239.3815
213  7193.8921
212  7100.006
211  7368.8726
210  7546.8834
209  7385.2072
208  7054.6887
207  7364.9355
206  7405.0619
205  7400.8446
204  7601.5491
203  7649.4645
202  7421.6346
201  7404.2494
200  7415.0579
199  7360.9316
198  7216.0663
197  7177.484
196  7227.4912
195  7554.9465
194  7688.2931
193  7322.3038
192  7351.3087
191  7186.2654
190  6881.55
189  7052.773
188  7148.9345
187  6787.0136
186  7116.2704
185  7154.8539
184  7245.1892
183  7554.7017
182  7755.6361
181  7736.9159
180  7634.9445
179  8025.3575
178  7826.1707
177  7998.505
176  7898.4355
175  7551.2965
174  7280.2841
173  7340.7063
172  7205.0847
171  7205.6014
170  6899.7271
169  6780.5009
168  6454.8165
167  6079.6661
166  5929.1829
165  5510.8477
164  5415.6026
163  5256.5783
162  5215.7059
161  5564.183
160  5838.2983
159  6894.8562
158  10461.294
157  18819.778
156  27185.457
155  23570.927
154  13883.619
153  8324.2128
152  6763.1763
151  6640.501
150  5754.4091
149  4778.8702
148  4418.5464
147  4314.662
146  4255.6004
145  4100.5493
144  4101.1576
143  4050.6047
142  3968.4044
141  3964.6138
140  4148.8617
139  3939.0257
138  4065.8989
137  4017.9957
136  3993.8766
135  3911.8088
134  3852.6249
133  3860.8738
132  4127.4252
131  4137.9112
130  4277.0808
129  4439.8722
128  4279.6242
127  4481.412
126  4281.1571
125  4370.9184
124  4008.2721
123  4116.8804
122  3992.5856
121  3399.7496
120  3706.2941
119  3337.9342
118  3075.2166
117  2851.9109
116  2579.0979
115  2428.8189
114  2100.4869
113  1809.3004
112  1658.3566
111  1463.6742
110  1554.1424
109  1481.2004
108  1840.1032
107  4316.8981
106  14437.062
105  28816.466
104  22829.599
103  8131.2494
102  2465.2764
101  1772.1559
100  2486.7642
99  2131.691
98  1008.7397
97  827.02215
96  862.20463
95  902.30688
94  1018.4309
93  1007.0559
92  928.45178
91  1027.9758
90  898.61009
89  942.32716
88  868.79367
87  930.90323
86  894.22994
85  941.10152
84  891.42829
83  976.9037
82  977.09496
81  939.19189
80  956.30724
79  1077.1145
78  1031.4301
77  1022.0262
76  1090.9959
75  1034.2441
74  1032.571
73  933.88953
72  1022.8542
71  1029.6145
70  1047.2628
69  1003.1588
68  932.63982
67  903.69917
66  930.89989
65  1075.1408
64  928.48271
63  925.56939
62  1094.5131
61  1123.1216
60  1051.3922
59  1057.2146
58  1079.9501
57  1102.8895
56  1047.2604
55  1162.8198
54  1244.0152
53  1327.7618
52  1242.0229
51  1252.4883
50  1346.3281
49  1269.1408
48  1232.7018
47  1140.6657
46  1129.9988
45  1050.891
44  989.50105
43  948.97207
42  1127.4297
41  1073.2998
40  1068.4564
39  906.67684
38  1027.7243
37  802.05269
36  723.24817
35  887.87207
34  1042.477
33  1041.5774
32  1065.4423
31  1338.0299
30  1615.4426
29  2418.3312
28  3524.2184
27  4283.1105
26  3863.6336
25  2428.9433
24  1266.8963
23  598.27041
22  389.54891
21  313.17106
20  263.58916
19  199.44929
18  254.23956
17  685.25462
16  1136.8158
15  1099.4652
14  1003.7852
13  1147.8245
12  1065.7874
11  1237.4785
10  1144.5021
9  1124.4829
8  1052.6884
7  604.68234
6  315.46607
5  193.79905
4  112.61702
3  73.056625
2  61.877801
1  22.021652
0  17.596532