# Group:             Spectrum Group (2) ajuste de altura
#
# Group:             Spectrum Group (2) ajuste de altura
#
# Region:            Survey
# Acquisition Date:  11/08/19 15:25:36 UTC
# Analysis Method:   XPS
# Analyzer:          Phoibos
# Analyzer Lens:     MediumArea:1.5kV
# Analyzer Slit:     4:3x20\B:open
# Scan Mode:         FixedAnalyzerTransmission
# Curves/Scan:       1
# Values/Curve:      1301
# Dwell Time:        0.1
# Excitation Energy: 1486.71
# Binding Energy:    1300
# Pass Energy:       50
# Bias Voltage:      90
# Detector Voltage:  1900
# Eff. Workfunction: 4.395
# Source:            Focus
# Comment:           Despues de decapado 2.5 min
#
# Cycle: 0
# Number of Scans: 2
#
# Cycle: 0, Curve: 0
# Acquisition Date: 11/08/19 15:25:36 UTC
#
# ColumnLabels: energy counts/s
#
1300  13898.35
1299  14179.973
1298  13809.774
1297  14001.103
1296  13901.142
1295  14001.158
1294  13792.237
1293  14013.938
1292  14093.309
1291  14046.765
1290  13653.499
1289  13882.213
1288  14083.612
1287  13931.742
1286  13177.006
1285  13692.538
1284  13807.76
1283  13124.429
1282  13946.051
1281  14117.931
1280  13367.03
1279  13490.979
1278  13861.126
1277  13808.532
1276  13957.692
1275  13389.453
1274  13713.83
1273  13928.185
1272  13756.928
1271  13750.344
1270  13301.528
1269  13524.264
1268  13552.894
1267  13855.275
1266  13810.568
1265  13410.384
1264  13586.479
1263  13594.702
1262  13653.005
1261  13489.002
1260  13542.768
1259  13655.162
1258  13531.712
1257  13430.317
1256  13137.43
1255  13142.152
1254  13372.145
1253  13176.332
1252  13303.758
1251  13471.965
1250  13225.011
1249  13515.017
1248  13650.196
1247  13552.419
1246  13811.043
1245  13367.913
1244  13639.172
1243  13297.123
1242  13239.208
1241  13438.035
1240  13610.083
1239  13081.557
1238  13713.472
1237  13107.039
1236  13268.837
1235  13051.098
1234  13673.509
1233  14067.043
1232  13307.802
1231  13285.44
1230  13599.313
1229  13060.24
1228  13364.471
1227  13428.015
1226  13793.793
1225  13940.781
1224  13492.449
1223  13761.904
1222  13792.357
1221  13609.988
1220  13639.48
1219  13734.357
1218  13751.682
1217  13358.759
1216  13442.259
1215  13414.136
1214  13687.89
1213  13796.72
1212  13448.246
1211  13899.117
1210  13901.163
1209  13926.757
1208  13688.87
1207  13376.416
1206  13673.753
1205  13635.084
1204  13410.349
1203  13700.78
1202  13480.363
1201  13627.227
1200  13328.529
1199  13653.167
1198  13828.052
1197  13589.791
1196  13528.779
1195  13512.335
1194  13618.729
1193  13884.624
1192  13852.676
1191  13567.826
1190  13788.067
1189  13826.77
1188  13466.082
1187  13463.396
1186  13967.582
1185  14053.185
1184  13489.685
1183  13644.214
1182  13406.571
1181  13384.132
1180  13727.215
1179  13674.605
1178  13601.634
1177  13462.48
1176  13703.27
1175  13639.336
1174  13507.476
1173  13504.247
1172  13269.169
1171  13695.815
1170  13911.353
1169  13863.476
1168  13921.199
1167  13979.863
1166  13964.923
1165  13957.002
1164  13962.911
1163  14016.048
1162  13766.16
1161  13728.978
1160  13669.871
1159  13142.696
1158  13478.782
1157  13904.72
1156  14236.08
1155  13776
1154  13764.958
1153  14217.409
1152  13752.408
1151  14000.623
1150  14076.458
1149  14049.907
1148  13809.734
1147  13947.211
1146  13807.229
1145  13734.571
1144  13965.608
1143  13987.255
1142  14229.389
1141  14037.283
1140  14164.199
1139  14375.229
1138  14397.759
1137  14331.632
1136  13734.229
1135  13863.937
1134  14402.908
1133  14022.97
1132  13919.262
1131  14275.001
1130  14108.003
1129  14266.737
1128  13883.148
1127  13803.777
1126  14217.693
1125  14129.196
1124  14011.236
1123  14257.66
1122  13974.501
1121  14286.875
1120  14408.114
1119  14514.963
1118  14309.328
1117  13969.578
1116  14091.764
1115  14116.479
1114  14163.208
1113  14611.846
1112  14617.666
1111  14135.124
1110  13973.799
1109  14061.414
1108  13642.046
1107  14070.043
1106  13907.574
1105  14113.962
1104  14197.29
1103  14387.428
1102  14301.275
1101  14102.323
1100  13998.737
1099  14516.305
1098  14828.2
1097  14807.451
1096  14467.157
1095  14350.097
1094  14483.396
1093  14406.286
1092  14454.52
1091  14224.548
1090  14507.496
1089  14393.344
1088  14625.482
1087  14519.722
1086  14528.539
1085  14786.674
1084  14563.964
1083  14637.944
1082  14433.052
1081  14758.115
1080  14340.046
1079  14870.574
1078  14415.978
1077  14766.449
1076  14857.834
1075  14726.86
1074  14690.943
1073  14651.558
1072  14664.404
1071  14635.305
1070  14869.205
1069  14814.233
1068  15130.695
1067  15110.222
1066  15665.975
1065  15355.335
1064  15103.727
1063  14827.147
1062  15527.995
1061  15615.078
1060  15692.462
1059  15286.219
1058  14909.369
1057  14951.575
1056  15194.591
1055  15388.804
1054  15258.995
1053  15894.139
1052  15355.984
1051  15500.947
1050  15876.531
1049  15443.694
1048  15564.217
1047  15921.275
1046  15784.213
1045  15702.043
1044  16085.005
1043  16516.886
1042  16497.442
1041  15571.868
1040  16097.317
1039  15570.581
1038  15663.751
1037  16354.697
1036  16427.091
1035  15721.112
1034  15869.518
1033  16020.839
1032  16520.692
1031  16206.791
1030  16226.034
1029  16374.295
1028  16420.102
1027  16676.297
1026  17142.493
1025  17366.591
1024  16912.714
1023  17521.995
1022  17543.519
1021  17438.904
1020  18041.66
1019  17947.837
1018  18105.352
1017  17687.999
1016  16982.78
1015  16855.36
1014  17193.814
1013  16978.752
1012  17115.369
1011  17484.328
1010  17648.798
1009  18317.998
1008  18358.954
1007  18495.581
1006  19535.094
1005  20255.19
1004  20387.672
1003  20881.711
1002  21293.609
1001  19983.083
1000  18822.985
999  18248.079
998  17988.928
997  17166.997
996  16867.513
995  16547.747
994  16028.482
993  15679.162
992  16101.255
991  16212.337
990  16851.385
989  16662.924
988  17037.272
987  17565.506
986  19821.852
985  21937.001
984  23625.168
983  25936.277
982  27956.257
981  28590.614
980  26404.085
979  22486.141
978  19498.136
977  17303.549
976  15531.277
975  14901.571
974  13626.077
973  12132.853
972  11128.109
971  9936.4179
970  9499.2456
969  9281.9035
968  8465.1239
967  8167.7523
966  8003.6164
965  8151.4902
964  7953.0757
963  7862.2311
962  7869.0023
961  7806.7821
960  7933.0502
959  7832.5036
958  7743.5612
957  7987.7957
956  7753.391
955  7783.9095
954  7730.1134
953  7840.3421
952  7848.617
951  7661.7993
950  7756.8146
949  7867.8982
948  7871.0649
947  7863.2384
946  7970.0107
945  7998.2788
944  7932.3211
943  7878.8715
942  8127.9229
941  8240.5397
940  8174.9431
939  7776.7542
938  8125.5167
937  7961.8084
936  7778.2688
935  8001.1777
934  7953.1601
933  7997.1832
932  7920.5623
931  7991.0621
930  8359.192
929  8490.2182
928  8203.6912
927  7834.4398
926  8153.233
925  8209.5737
924  8260.5717
923  8419.77
922  8532.594
921  8070.4793
920  8262.6667
919  8160.7424
918  8354.9809
917  8553.4025
916  8401.3972
915  8400.4965
914  8016.7665
913  8255.1797
912  8700.4134
911  8463.7549
910  8354.2595
909  8226.9823
908  8499.5425
907  8865.3913
906  8615.3349
905  8254.1154
904  8595.9098
903  8514.104
902  8369.3515
901  8825.3601
900  8713.4874
899  8951.6292
898  8905.243
897  8592.8616
896  8444.8914
895  8725.4532
894  8777.853
893  8889.3204
892  8789.9683
891  8686.9832
890  8731.2923
889  9122.5522
888  8944.3537
887  9036.0743
886  8945.5985
885  8855.3803
884  8735.3282
883  8614.5817
882  8924.263
881  9053.8559
880  9321.9078
879  9015.5141
878  8871.0089
877  8833.3292
876  8842.8607
875  9003.9084
874  9222.4189
873  8740.2624
872  8976.9702
871  8980.0853
870  9245.8838
869  9164.0782
868  9510.8778
867  9217.3776
866  8996.2038
865  9144.3212
864  9097.5452
863  9293.0298
862  9013.2995
861  9155.8744
860  9646.2406
859  9525.8424
858  9408.1009
857  9312.8457
856  9271.9769
855  9436.4835
854  9556.5737
853  9309.685
852  9772.5159
851  9503.2853
850  9515.5098
849  9600.5305
848  9401.4207
847  9340.9352
846  9784.5068
845  9597.3291
844  9692.6106
843  9629.114
842  9498.0827
841  9779.8927
840  9427.7601
839  9804.5667
838  10046.431
837  10220.06
836  10062.654
835  9778.3641
834  9791.354
833  9995.4155
832  9858.8528
831  10227.442
830  10071.558
829  9867.5626
828  9966.7718
827  10157.408
826  10513.916
825  10377.295
824  9768.0094
823  9975.8303
822  10499.772
821  10449.671
820  10044.665
819  10094.351
818  10112.748
817  10057.254
816  10303.113
815  10245.057
814  10352.605
813  10534.752
812  10448.417
811  10599.487
810  10197.838
809  10543.365
808  10068.009
807  10432.767
806  10462.63
805  10209.867
804  10640.489
803  10595.183
802  10642.274
801  10563.756
800  10885.134
799  10817.747
798  10646.977
797  10837.602
796  10883.373
795  10636.626
794  10674.775
793  10900.753
792  10692.016
791  11024.621
790  11308.65
789  11104.999
788  11077.323
787  11247.809
786  11005.417
785  10891.404
784  11069.795
783  11273.691
782  11017.014
781  11045.897
780  11414.195
779  11332.196
778  11270.939
777  11447.348
776  11258.264
775  11194.516
774  11693.581
773  11556.449
772  11455.219
771  11284.834
770  11484.614
769  11720.701
768  11359.154
767  11207.364
766  11724.046
765  11495.583
764  11591.814
763  11790.252
762  11611.033
761  11388.308
760  11244.752
759  11666.817
758  11595.84
757  11744.099
756  11734.691
755  11939.768
754  12052.302
753  12318.132
752  12065.477
751  12048.951
750  11947.947
749  12312.025
748  12397.096
747  11947.653
746  12220.939
745  12261.047
744  12302.732
743  12020.049
742  12018.936
741  11849.804
740  11996.172
739  12374.252
738  12307.79
737  12378.112
736  11984.935
735  12489.943
734  12400.89
733  12401.46
732  12434.885
731  12447.848
730  12240.163
729  12592.548
728  12254.658
727  12379.238
726  12956.053
725  12667.972
724  12778.155
723  12758.392
722  12733.901
721  12978.535
720  12677.423
719  12593.78
718  12738.064
717  13089.811
716  12948.275
715  12913.395
714  13054.899
713  12667.48
712  12568.183
711  12913.187
710  12943.482
709  12326.725
708  12914.914
707  12868.58
706  13177.834
705  13010.015
704  13003.852
703  13537.834
702  13311.336
701  13383.782
700  13479.624
699  13599.244
698  13248.753
697  13509.632
696  13377.966
695  13640.081
694  13886.135
693  13915.443
692  13476.391
691  13741.913
690  13839.802
689  13833.895
688  13789.391
687  13720.672
686  13746.977
685  13616.647
684  13701.596
683  13887.232
682  13857.567
681  13708.7
680  13851.538
679  13617.058
678  13967.183
677  14100.346
676  13976.966
675  14128.104
674  14611.6
673  14057.578
672  14462.219
671  14173.697
670  14023.605
669  14356.791
668  14436.069
667  14486.256
666  14453.738
665  14509.577
664  14575.316
663  14702.347
662  14640.68
661  14552.866
660  14900.508
659  14877.815
658  14829.976
657  14621.798
656  14541.925
655  14917.918
654  14765.4
653  15029.158
652  15234.028
651  15051.723
650  14851.484
649  14794.965
648  15252.17
647  15182.529
646  15537.473
645  15638.216
644  15299.985
643  15243.656
642  15398.939
641  15302.722
640  15597.717
639  15494.306
638  15557.723
637  15546.166
636  15945.086
635  15766.718
634  15667.765
633  15975.82
632  16054.024
631  16142.048
630  16002.164
629  16292.641
628  16375.957
627  16123.057
626  16433.059
625  16412.197
624  16312.425
623  16323.959
622  16450.387
621  16891.78
620  16612.416
619  16384.979
618  16505.782
617  16886.592
616  16373.58
615  16395.482
614  16654.321
613  16798.214
612  16694.665
611  16618.92
610  16802.159
609  16684.152
608  16821.675
607  16909.474
606  16909.133
605  17020.804
604  16708.198
603  16813.93
602  16570.454
601  17479.469
600  17374.499
599  17248.924
598  17281.428
597  17147.264
596  17333.89
595  17172.479
594  17243.579
593  17969.548
592  17652.687
591  18123.991
590  17539.384
589  17680.285
588  18380.024
587  18304.707
586  18235.168
585  17753.225
584  18555.667
583  18332.783
582  18190.149
581  18401.786
580  18236.107
579  18947.494
578  18763.594
577  18636.879
576  18761.012
575  18098.909
574  18244.329
573  17991.742
572  17836.608
571  17612.83
570  17627.46
569  17359.526
568  17334.071
567  16991.631
566  17728.571
565  18239.741
564  18781.384
563  19397.9
562  19911.353
561  20856.332
560  21402.255
559  22484.101
558  22691.61
557  23433.187
556  22936.134
555  21682.549
554  20377.139
553  18527.142
552  17042.188
551  16090.636
550  15530.088
549  15103.432
548  14309.012
547  13139.696
546  12536.454
545  11869.339
544  10537.056
543  9514.6076
542  8728.7787
541  8662.8302
540  8254.9545
539  8357.4564
538  9194.6279
537  12855.343
536  33059.742
535  96353.557
534  133479.28
533  64216.359
532  17259.395
531  8862.3804
530  7160.3602
529  7067.4764
528  6620.6111
527  6734.3941
526  6817.7423
525  6690.336
524  6534.8053
523  6377.6161
522  6605.4845
521  6434.6899
520  6359.7405
519  6181.4168
518  6256.1152
517  6389.4813
516  6318.1664
515  6348.6493
514  6439.465
513  6532.4791
512  6370.1225
511  6260.0888
510  6281.1654
509  6541.3343
508  6403.078
507  6279.1766
506  6181.2815
505  6167.6911
504  6423.6176
503  6422.4475
502  6287.2047
501  6592.0104
500  6585.7981
499  6170.1049
498  6566.6434
497  6597.9051
496  6121.8696
495  6204.9832
494  6455.0566
493  6651.2558
492  6550.8508
491  6442.6401
490  6318.1508
489  6343.3606
488  6510.7242
487  6588.3534
486  6649.8188
485  6880.4197
484  6406.1967
483  6559.8692
482  6793.6565
481  6605.8546
480  6895.4486
479  6585.6526
478  6295.6056
477  6507.5413
476  6525.3817
475  6617.06
474  6698.3484
473  7014.4606
472  6866.0811
471  6585.7122
470  6653.9431
469  6661.6915
468  6565.3868
467  6504.4321
466  6560.0606
465  6839.5943
464  6687.5909
463  6557.0769
462  6826.4241
461  6792.6649
460  6605.1268
459  6704.4114
458  6795.3553
457  6759.3507
456  6913.4501
455  6845.1997
454  6980.949
453  6771.693
452  6948.5888
451  6861.4167
450  6617.4454
449  6770.3347
448  6546.5923
447  6995.8985
446  6960.9261
445  6703.3669
444  6766.0072
443  6680.7318
442  6810.3729
441  6950.8908
440  7127.6871
439  6905.0161
438  6973.7335
437  6992.9621
436  6598.8352
435  6634.6454
434  6759.1532
433  6875.3157
432  6765.427
431  6803.033
430  6715.7395
429  6800.2055
428  6865.9174
427  7020.9697
426  6903.6273
425  6933.2827
424  6759.7121
423  6916.6133
422  6952.501
421  6803.6507
420  6862.7725
419  6736.1828
418  7034.6926
417  6788.3913
416  6986.4124
415  7107.2363
414  6864.6959
413  6682.7612
412  6810.7729
411  6715.037
410  7062.0135
409  7265.6947
408  6983.4509
407  7163.5213
406  6902.8683
405  6755.0307
404  6851.0889
403  7075.8124
402  7056.7332
401  7437.1471
400  7667.2178
399  7554.407
398  7020.925
397  7063.127
396  6886.3103
395  6774.2938
394  6962.7242
393  7130.3586
392  7047.436
391  6794.1212
390  7030.7123
389  7069.4201
388  6797.3228
387  6941.5385
386  7029.1036
385  6964.7054
384  7292.2736
383  7182.5246
382  7268.9676
381  7126.6629
380  7039.1412
379  7252.7535
378  7238.4863
377  7327.1018
376  7072.2173
375  7195.2753
374  7511.8801
373  6924.9259
372  7137.145
371  7426.3137
370  6904.6664
369  6964.2513
368  7120.6612
367  7021.3407
366  7127.9421
365  7036.3981
364  7341.34
363  7069.4446
362  7261.4183
361  7146.84
360  7052.5547
359  6876.9547
358  7169.2544
357  7209.9209
356  7209.142
355  6864.1191
354  7195.6097
353  7087.6465
352  7198.0438
351  7297.6529
350  7407.5332
349  7221.9623
348  7150.888
347  7491.5323
346  7200.4932
345  6997.1307
344  6927.1282
343  7200.3608
342  7148.198
341  6858.2156
340  7189.299
339  7116.1846
338  7147.9348
337  7298.6704
336  7201.988
335  7087.106
334  7042.6184
333  7159.2009
332  7268.6923
331  7544.9009
330  7189.0496
329  7128.6657
328  7246.4658
327  7264.1543
326  7316.015
325  7296.3763
324  6907.5396
323  7238.0387
322  7168.9085
321  7525.842
320  7557.8864
319  7084.0811
318  7305.3755
317  7329.8609
316  7153.9629
315  7047.0849
314  7541.8614
313  7207.4856
312  6911.8095
311  7220.1988
310  7114.6036
309  7118.5186
308  7210.8134
307  7050.2827
306  6800.1448
305  7306.5924
304  7183.4417
303  7059.1629
302  6773.6619
301  6869.965
300  7075.7086
299  6891.0773
298  6733.5428
297  7135.7658
296  7113.9425
295  6945.602
294  6969.9783
293  7308.0871
292  7215.5362
291  6970.9626
290  6950.662
289  7214.7411
288  6868.4015
287  7243.3301
286  7330.8776
285  7122.4049
284  7290.0591
283  7105.7228
282  7058.102
281  7149.4088
280  7504.2956
279  7213.4233
278  6877.8224
277  7025.615
276  6913.6006
275  6814.9809
274  7040.7469
273  7040.2657
272  7123.4583
271  6937.4883
270  6976.1013
269  7069.6687
268  6844.7309
267  6784.2104
266  7071.8736
265  7054.8915
264  6923.0553
263  7036.0738
262  7043.3533
261  7318.7185
260  7096.6514
259  6886.4558
258  7040.1337
257  6674.0384
256  7132.7434
255  6943.8094
254  6746.1698
253  6681.858
252  7079.737
251  7136.6572
250  6830.4234
249  6934.0405
248  6947.1413
247  6885.4685
246  7123.9513
245  7740.7296
244  7960.2653
243  8234.6635
242  7228.1284
241  6949.6311
240  7026.7339
239  6877.9257
238  6725.6116
237  6604.5503
236  6604.9155
235  6639.462
234  6639.5889
233  6910.5227
232  6675.4333
231  6509.1779
230  6530.526
229  6496.0196
228  6815.1706
227  6546.1926
226  6163.486
225  6316.5226
224  6546.8571
223  6607.7022
222  6496.3973
221  6686.2883
220  6836.9588
219  6855.7906
218  6692.6461
217  6564.9455
216  6721.3432
215  6740.799
214  6473.0685
213  6636.0428
212  6663.2648
211  6282.2993
210  6805.0477
209  6768.7622
208  6755.8799
207  6523.9473
206  6444.0241
205  6761.8425
204  6506.1201
203  6461.8075
202  6817.1504
201  6719.0447
200  6740.3495
199  6779.3098
198  6643.1431
197  6633.0378
196  6796.6067
195  6423.5027
194  6725.2934
193  6717.9874
192  6422.7572
191  6485.5153
190  6617.2737
189  6523.1892
188  6460.4989
187  6409.2528
186  6831.6546
185  6834.2655
184  6591.4252
183  6953.6664
182  6958.4669
181  7135.4224
180  7113.6914
179  7364.0448
178  7397.8647
177  7307.78
176  7238.0028
175  6978.7428
174  6817.593
173  6839.8641
172  6680.5914
171  6351.7858
170  6107.8907
169  5968.1475
168  5708.1717
167  5331.7748
166  4691.9022
165  4931.2641
164  4782.0558
163  4640.2902
162  4822.4399
161  4917.2329
160  5400.4177
159  6637.8062
158  10300.937
157  19061.44
156  26368.358
155  21410.122
154  12642.223
153  7859.678
152  6128.2202
151  5287.9497
150  4800.6173
149  4397.4437
148  3943.1174
147  3825.4231
146  3768.4852
145  3838.1262
144  3829.7825
143  3661.8863
142  3415.0945
141  3901.4377
140  3640.5157
139  3537.2266
138  3676.3064
137  3724.5705
136  3470.9499
135  3585.664
134  3639.1448
133  3579.6942
132  3705.324
131  3993.9905
130  3966.2539
129  4372.7731
128  4402.7633
127  4172.8262
126  3934.203
125  3932.4469
124  3968.3808
123  4025.5595
122  3569.1022
121  3514.7162
120  3304.8559
119  2891.0209
118  2890.3515
117  2628.2331
116  2467.5984
115  2261.5528
114  1749.2432
113  1710.4509
112  1633.168
111  1475.1059
110  1351.7152
109  1487.0826
108  2008.3092
107  5126.0226
106  15807.909
105  27480.066
104  20753.492
103  7140.0141
102  2197.1687
101  1447.6567
100  1904.7682
99  1477.8627
98  949.91342
97  947.15023
96  904.78854
95  919.13101
94  882.20729
93  823.67177
92  836.7623
91  983.29774
90  999.03102
89  850.18411
88  959.76894
87  1007.1707
86  1019.3808
85  936.28142
84  964.74469
83  978.62447
82  1009.4114
81  982.2098
80  926.87233
79  928.93603
78  992.61364
77  901.06695
76  954.41983
75  958.61279
74  961.06701
73  988.83693
72  951.71424
71  979.35417
70  1015.2742
69  1084.3857
68  1041.7816
67  1036.5542
66  961.43357
65  971.18906
64  871.22599
63  982.20187
62  1005.9423
61  1006.7551
60  1113.5194
59  1122.5548
58  1028.0178
57  1072.4235
56  1171.9277
55  1102.9012
54  1151.1446
53  1225.9968
52  1235.0682
51  1313.9367
50  1291.8911
49  1287.9674
48  1088.4239
47  1078.6935
46  1209.1598
45  1138.4098
44  926.06568
43  947.93868
42  1082.7231
41  917.41916
40  917.96468
39  953.48749
38  821.22723
37  837.35231
36  861.45453
35  848.32426
34  913.91464
33  1057.8515
32  1262.2755
31  1356.8991
30  1640.4559
29  2441.1664
28  3436.8342
27  4039.0449
26  3926.4012
25  2258.8083
24  1082.1545
23  612.88303
22  424.10195
21  276.88746
20  189.90419
19  165.90863
18  353.4876
17  710.94912
16  1007.8584
15  1054.2611
14  1119.6117
13  976.25676
12  1015.1173
11  955.18838
10  1062.0746
9  1040.5905
8  966.85454
7  574.50264
6  218.87352
5  143.80633
4  103.65772
3  37.908227
2  33.429848
1  23.860325
0  19.561