# Region:            Survey 200s 3k 36uA H=5
# Acquisition Date:  11/07/19 18:42:13 UTC
# Analysis Method:   XPS
# Analyzer:          Phoibos
# Analyzer Lens:     MediumArea:1.5kV
# Analyzer Slit:     4:3x20\B:open
# Scan Mode:         FixedAnalyzerTransmission
# Curves/Scan:       1
# Values/Curve:      1301
# Dwell Time:        0.1
# Excitation Energy: 1486.71
# Binding Energy:    1300
# Pass Energy:       50
# Bias Voltage:      90
# Detector Voltage:  1900
# Eff. Workfunction: 4.395
# Source:            Focus
# Comment:           
#
# Cycle: 0
# Number of Scans: 2
#
# Cycle: 0, Curve: 0
# Acquisition Date: 11/07/19 18:42:13 UTC
#
# ColumnLabels: energy counts/s
#
1300  16341.013
1299  15379.452
1298  15729.421
1297  15860.718
1296  15693.88
1295  15882.768
1294  15745.68
1293  15430.623
1292  15675.572
1291  15610.409
1290  15438.28
1289  15497.654
1288  15362.553
1287  15875.781
1286  15785.908
1285  15787.513
1284  15723.668
1283  15353.854
1282  15780.85
1281  15421.941
1280  15332.594
1279  15719.535
1278  15810.935
1277  15437.862
1276  15758.239
1275  15554.623
1274  15970.107
1273  15725.166
1272  15333.924
1271  15254.385
1270  15199.129
1269  15329.818
1268  15790.256
1267  15754.002
1266  15574.326
1265  15865.473
1264  15670.349
1263  16080.91
1262  15703.695
1261  15239.111
1260  15537.486
1259  15302.529
1258  15670.628
1257  15517.999
1256  15430.24
1255  15729.202
1254  15481.518
1253  15836.349
1252  15697.537
1251  15111.389
1250  15494.807
1249  16199.425
1248  15928.684
1247  15333.012
1246  15280.538
1245  15505.777
1244  15462.085
1243  15323.674
1242  15546.405
1241  15901.976
1240  15891.733
1239  16153.925
1238  15903.646
1237  15479.792
1236  15911.33
1235  15641.707
1234  15859.718
1233  15782.015
1232  15757.684
1231  16131.142
1230  15765.35
1229  15349.094
1228  15090.82
1227  15607.913
1226  15771.36
1225  15755.994
1224  15776.865
1223  15510.051
1222  16098.751
1221  16063.281
1220  15634.549
1219  15999.098
1218  15647.808
1217  16013.053
1216  15768.265
1215  15652.079
1214  15561.235
1213  15612.715
1212  15664.635
1211  15368.069
1210  15346.637
1209  15574.642
1208  15361.988
1207  15454.285
1206  15344.46
1205  15363.702
1204  15947.9
1203  15282.35
1202  15691.965
1201  15606.21
1200  15599.036
1199  15934.287
1198  15705.893
1197  15520.594
1196  15124.337
1195  15541.413
1194  15399.383
1193  15806.288
1192  15632.456
1191  15650.415
1190  15478.653
1189  15794.794
1188  15156.534
1187  15397.256
1186  15287.385
1185  15285.383
1184  15199.383
1183  15477.513
1182  15428.362
1181  15607.691
1180  15468.065
1179  15267.11
1178  15407.008
1177  15854.476
1176  15644.245
1175  16112.456
1174  15797.321
1173  15690.703
1172  15233.305
1171  15195.211
1170  15686.074
1169  15913.434
1168  15527.152
1167  16151.651
1166  15771.478
1165  15441.704
1164  15707.205
1163  15725.444
1162  15616.055
1161  15686.154
1160  15759.853
1159  15607.535
1158  16213.725
1157  15317.14
1156  15438.423
1155  15606.438
1154  15359.982
1153  15559.494
1152  15502.922
1151  16117.287
1150  15875.36
1149  15224.024
1148  15500.042
1147  15452.83
1146  15405.019
1145  15262.055
1144  15438.622
1143  15688.006
1142  15752.807
1141  15428.853
1140  15620.251
1139  15456.722
1138  15478.979
1137  15581.258
1136  15851.748
1135  16108.71
1134  15757.276
1133  15801.61
1132  15592.286
1131  15930.956
1130  15761.804
1129  15702.261
1128  15865.345
1127  16184.313
1126  16213.47
1125  16066.056
1124  15878.082
1123  15944.02
1122  15900.7
1121  15732.454
1120  15714.439
1119  15518.851
1118  15883.214
1117  15789.45
1116  16107.853
1115  15785.337
1114  16002.233
1113  15563.653
1112  15754.17
1111  16061.094
1110  16309.448
1109  15689.742
1108  15478.755
1107  16091.178
1106  15852.422
1105  15713.001
1104  15843.552
1103  15680.759
1102  16100.572
1101  16046.941
1100  16082.431
1099  16112.37
1098  16031.802
1097  15813.509
1096  15872.417
1095  15756.869
1094  16106.284
1093  15913.048
1092  16183.447
1091  16493.449
1090  16323.593
1089  16443.014
1088  16205.755
1087  16070.225
1086  16173.959
1085  15945.352
1084  16459.579
1083  16457.449
1082  16293.846
1081  16459.66
1080  16318.464
1079  16293.531
1078  16496.762
1077  16332.459
1076  16732.219
1075  16837.664
1074  16338.4
1073  16222.369
1072  16399.306
1071  16599.249
1070  16638.567
1069  16853.695
1068  16806.185
1067  16728.761
1066  16641.256
1065  16848.872
1064  16881.568
1063  17036.045
1062  17009.393
1061  16799.731
1060  16635.627
1059  16841.424
1058  16905.958
1057  17467.526
1056  17519.935
1055  16762.66
1054  16932.381
1053  16800.513
1052  17010.338
1051  16881.505
1050  16859.061
1049  17266.037
1048  17171.323
1047  17316.857
1046  17468.252
1045  17459.384
1044  17968.28
1043  17558.303
1042  17493.908
1041  17744.106
1040  17509.074
1039  17838.575
1038  17697.551
1037  17987.325
1036  18090.441
1035  18288.891
1034  17905.524
1033  17991.814
1032  18206.316
1031  18144.696
1030  18394.536
1029  18548.657
1028  18698.149
1027  18546.109
1026  18974.702
1025  18836.648
1024  18516.363
1023  18998.355
1022  19188.376
1021  19699.724
1020  19864.219
1019  19633.098
1018  19297.503
1017  19682.214
1016  19381.414
1015  18985.323
1014  18928.445
1013  18998.762
1012  18357.418
1011  18635.761
1010  19277.214
1009  19844.545
1008  19825.097
1007  20858.763
1006  21111.336
1005  21706.329
1004  22603.386
1003  22447.076
1002  22169.38
1001  21057.863
1000  20662.152
999  19703.685
998  19112.31
997  18978.564
996  18157.556
995  17941.753
994  17386.353
993  17582.257
992  17512.259
991  18086.19
990  18203.825
989  18169.033
988  18919.659
987  20000.464
986  22341.58
985  24261.976
984  26502.142
983  27667.528
982  29630.963
981  29066.306
980  25767.957
979  23233.257
978  20401.832
977  18477.715
976  17380.45
975  16180.651
974  14760.505
973  13490.908
972  12451.486
971  11342.319
970  10741.582
969  10046.41
968  9454.597
967  9387.5667
966  9292.1237
965  9486.6097
964  9624.7237
963  9668.9223
962  9467.6564
961  9371.2318
960  9627.7871
959  9306.5
958  9059.0204
957  9457.8609
956  9486.3539
955  9435.4491
954  9255.4132
953  9464.6384
952  9527.3948
951  9274.6527
950  9271.3738
949  9243.5222
948  9146.1449
947  9254.1245
946  9584.2563
945  9367.1513
944  9482.7816
943  9553.4889
942  9424.7985
941  9589.2545
940  9515.1172
939  9194.9773
938  9399.3213
937  9603.6479
936  9325.8084
935  9710.7577
934  9537.5556
933  9697.0737
932  9729.66
931  9890.6921
930  10044.578
929  10088.166
928  9755.6221
927  10260.735
926  10125.389
925  9908.5024
924  9792.9503
923  9946.296
922  9802.5631
921  9792.7518
920  10023.599
919  10086.813
918  10101.447
917  9922.3222
916  10078.055
915  10042.361
914  10178.288
913  9923.4522
912  10043.779
911  10322.558
910  9826.1473
909  10146.651
908  10070.37
907  9888.1612
906  10097.285
905  10035.667
904  9722.1651
903  9915.8567
902  10425.395
901  10012.925
900  9857.2582
899  10233.4
898  10611.447
897  10591.821
896  10320.768
895  10373.509
894  10460.382
893  10426.724
892  10365.445
891  10432.182
890  10263.846
889  10346.413
888  10577.341
887  10226.546
886  10376.879
885  10472.416
884  10356.224
883  10559.105
882  11354.199
881  10938.537
880  10781.535
879  10909.567
878  10947.533
877  11072.565
876  10724.264
875  11051.117
874  10930.074
873  11127.537
872  10829.306
871  11057.461
870  10967.731
869  10974.278
868  10848.422
867  10723.412
866  10902.648
865  10786.193
864  11253.29
863  11407.458
862  11010.156
861  11374.235
860  11174.307
859  11191.943
858  11359.788
857  11233.88
856  11093.714
855  11332.78
854  11631.171
853  11978.54
852  11540.186
851  11492.651
850  11679.726
849  11515.455
848  11609.779
847  11613.791
846  11706.349
845  12013.471
844  11546.064
843  11711.477
842  11717.55
841  11500.113
840  11412.053
839  11680.507
838  11471.364
837  11891.137
836  12119.945
835  12214.946
834  12130.773
833  12211.477
832  11724.539
831  12159.611
830  12046.974
829  11869.57
828  12133.168
827  12056.297
826  11877.732
825  12007.525
824  12085.186
823  12391.358
822  12195.501
821  12458.581
820  12145.064
819  12141.001
818  12317.277
817  12431.525
816  12462.397
815  12250.068
814  12265.965
813  12672.851
812  12389.372
811  12557.879
810  12401.885
809  12585.469
808  12954.514
807  12838.936
806  12977.755
805  12758.334
804  12678.24
803  12598.181
802  12482.555
801  12377.22
800  12334.485
799  12714.698
798  12696.614
797  12421.225
796  12518.391
795  13011.618
794  12983.849
793  12866.884
792  12980.214
791  13009.135
790  13042.095
789  12730.959
788  12836.171
787  12929.76
786  13020.476
785  13156.092
784  12933.705
783  12740
782  12609.02
781  12880.886
780  12927.444
779  13244.698
778  13479.407
777  13182.712
776  13110.661
775  13239.687
774  13465.851
773  13717.203
772  13475.161
771  13342.543
770  13987.48
769  13521.249
768  13123.116
767  13590.772
766  13347.451
765  13458.997
764  13183.972
763  13583.987
762  13495.208
761  13666.264
760  13652.857
759  13373.921
758  13551.843
757  13588.477
756  14078.573
755  13769.844
754  13398.341
753  14110.134
752  14083.742
751  14267.142
750  13512.135
749  13861.171
748  14142.11
747  14147.378
746  13826.985
745  13897.492
744  14164.109
743  14008.773
742  14265.725
741  14157.601
740  13878.081
739  14451.108
738  14247.815
737  14126.858
736  14304.269
735  14351.025
734  14450.066
733  14567.095
732  14211.393
731  14171.12
730  14568.534
729  14373.666
728  14197.204
727  14209.638
726  14497.198
725  14188.72
724  14205.196
723  14499.836
722  14265.054
721  14253.091
720  14446.839
719  14903.085
718  15210.647
717  14617.402
716  14684.171
715  14942.168
714  14644.041
713  14515.907
712  14468.515
711  14740.805
710  14810.57
709  14821.838
708  15065.8
707  14881.803
706  15224.604
705  14755.838
704  14986.708
703  14855.52
702  15008.081
701  15097.874
700  15578.341
699  15386.276
698  15063.23
697  15159.739
696  15336.169
695  15390.309
694  15570.033
693  15700.748
692  15475.418
691  15650.405
690  15174.202
689  15140.328
688  14938.194
687  15748.392
686  15714.085
685  15292.957
684  15404.964
683  15595.556
682  15814.602
681  15809.398
680  15784.458
679  15510.445
678  15904.291
677  15832.441
676  15805.797
675  15928.888
674  15873.791
673  15548.147
672  15788.579
671  15746.197
670  16064.156
669  16015.45
668  15446.236
667  15919.126
666  15678.138
665  16446.725
664  16031.193
663  15985.468
662  16308.855
661  15927.987
660  16471.666
659  16004.117
658  16631.679
657  16186.245
656  16505.114
655  16302.327
654  16382.212
653  16180.267
652  16118.119
651  16356.357
650  16324.5
649  16412.001
648  16664.16
647  16405.574
646  16607.088
645  16919.331
644  17054.25
643  17111.22
642  17106.748
641  17141.168
640  16857.374
639  16926.815
638  17022.157
637  16970.596
636  16539.135
635  16722.312
634  16759.764
633  17171.579
632  16720.252
631  17126.786
630  16805.3
629  17265.538
628  16857.332
627  16756.32
626  17046.654
625  17012.516
624  17086.905
623  17277.642
622  18175.324
621  17738.465
620  17642.498
619  17258.617
618  17841.494
617  17655.774
616  17928.031
615  17742.448
614  17804.669
613  17453.688
612  17742.763
611  17750.746
610  17740.537
609  17957.205
608  17853.937
607  17669.036
606  18227.562
605  18215.773
604  17587.298
603  17772.108
602  18187.292
601  18570.555
600  18589.013
599  18240.071
598  18387.927
597  18571.925
596  18246.1
595  18252.961
594  18184.004
593  18441.195
592  18317.486
591  18647.809
590  18691.199
589  18330.292
588  18898.469
587  19218.208
586  19239.07
585  19337.127
584  19062.107
583  18256.053
582  18962.442
581  18741.258
580  18704.045
579  18649.836
578  19031.577
577  18879.998
576  19180.428
575  18922.782
574  18528.622
573  18492.906
572  18226.674
571  18140.817
570  18117.238
569  17587.21
568  17649.866
567  17990.967
566  18224.883
565  18594.341
564  19405.234
563  19708.318
562  20711.147
561  21610.725
560  22777.107
559  23157.062
558  22869.66
557  23409.009
556  23216.527
555  21620.763
554  19608.987
553  18284.504
552  17475.078
551  15961.752
550  15810.179
549  14742.213
548  14089.461
547  13115.253
546  12267.178
545  11360.152
544  9840.9613
543  8998.2482
542  8653.9901
541  8145.9131
540  8537.3941
539  8951.7117
538  11703.546
537  20673.393
536  51494.704
535  115826.5
534  113806.52
533  41508.676
532  12483.822
531  7752.4838
530  6420.5186
529  5825.0814
528  6180.4512
527  6094.0151
526  5849.2258
525  5622.3453
524  5782.0104
523  6127.0533
522  6003.0561
521  5745.9975
520  5935.3483
519  5612.0023
518  5790.6889
517  5913.444
516  5995.9163
515  5585.2006
514  5551.9665
513  5757.0967
512  5849.2458
511  5569.3665
510  5814.694
509  5791.1527
508  6205.3021
507  6203.7398
506  6201.7765
505  5978.5246
504  5764.2744
503  5966.7092
502  5938.3172
501  5859.6093
500  6001.9968
499  6038.7244
498  5830.1663
497  6117.0721
496  6064.8002
495  5814.9551
494  6008.8992
493  6226.4127
492  5906.8113
491  5837.6138
490  5635.4213
489  5911.7281
488  6103.0433
487  5816.011
486  5865.7639
485  5899.1478
484  5978.4212
483  6020.6766
482  5727.8805
481  5823.5661
480  5947.8664
479  5955.4922
478  6123.2883
477  6086.182
476  5963.782
475  6027.1765
474  5994.7006
473  6040.9154
472  6389.5184
471  6339.8584
470  5888.8118
469  5955.3809
468  6103.4048
467  6428.7119
466  5967.2136
465  6174.9289
464  6207.1403
463  6232.8689
462  6066.4379
461  6249.3062
460  6105.058
459  6192.7904
458  6213.6362
457  6284.6362
456  6153.8301
455  6336.0142
454  6171.548
453  6253.0339
452  6292.3202
451  6306.5384
450  6227.1456
449  6402.724
448  6191.3245
447  6340.3135
446  6114.6159
445  6137.3074
444  6364.8226
443  6463.6387
442  6545.1246
441  6264.3283
440  6037.416
439  6147.0571
438  5937.4917
437  6059.5237
436  6140.5465
435  6176.4646
434  6240.7781
433  6119.2371
432  6315.5511
431  6328.6411
430  6188.3477
429  6206.4129
428  5988.5111
427  6201.6604
426  6454.0361
425  6173.2502
424  6124.1694
423  6422.8905
422  6060.1855
421  6034.2079
420  6021.1608
419  6506.4256
418  6198.3933
417  6292.9264
416  5753.4296
415  5952.0645
414  6176.2866
413  6275.5691
412  6404.0177
411  6398.8465
410  6290.1845
409  6538.3222
408  6193.9939
407  6148.835
406  6358.4109
405  6388.1779
404  6153.1369
403  6576.7635
402  6540.1052
401  6778.4718
400  6467.4321
399  6343.7042
398  6278.6983
397  6149.4945
396  6250.4723
395  6293.89
394  6459.8556
393  6426.7694
392  6366.1037
391  6174.3662
390  6208.6561
389  6186.5901
388  6277.2902
387  6517.7877
386  6257.9368
385  6178.5852
384  6188.713
383  6421.5909
382  6465.525
381  6461.2627
380  6544.0815
379  6343.9364
378  6321.4079
377  6363.0831
376  6508.6866
375  6537.7818
374  6405.8108
373  6555.2667
372  6312.1861
371  6564.227
370  6359.7636
369  6522.156
368  6468.4769
367  6510.1241
366  6229.2871
365  6382.552
364  6589.6189
363  6361.4068
362  6119.7286
361  6110.0371
360  6399.624
359  6459.9629
358  6642.63
357  6409.778
356  6463.6718
355  6545.3283
354  6669.7735
353  6551.2849
352  6623.353
351  6905.2958
350  7131.4148
349  6851.4187
348  6450.2256
347  6367.353
346  6452.1823
345  6372.4989
344  6295.8644
343  6444.2794
342  6192.9324
341  6382.9187
340  6099.3482
339  6276.6809
338  6357.217
337  6027.2176
336  6323.8027
335  6510.4502
334  6244.7969
333  6633.5279
332  6620.3009
331  6387.6132
330  6423.0944
329  6501.2035
328  6273.9362
327  6258.119
326  6316.1818
325  6172.1741
324  6335.611
323  6640.3481
322  6803.3085
321  6712.7757
320  6613.672
319  6487.2546
318  6514.0072
317  6262.9522
316  6087.1791
315  6152.4394
314  6219.7583
313  6085.2225
312  6396.1696
311  6589.9214
310  6338.6762
309  6593.1
308  6575.4161
307  6237.2296
306  6381.2397
305  6268.4601
304  6373.256
303  6191.7444
302  6370.3089
301  6449.3301
300  6565.4362
299  6157.9257
298  6378.1188
297  6287.0843
296  6540.8827
295  6426.9381
294  6720.7136
293  6494.7141
292  6342.0058
291  6271.4919
290  5915.6119
289  6635.725
288  6763.4756
287  7382.402
286  7819.7036
285  7216.9328
284  6759.6735
283  6407.4471
282  6014.0353
281  6289.0193
280  6273.6257
279  6162.3509
278  6055.9762
277  6215.0947
276  6194.5946
275  6275.2274
274  6128.2344
273  6247.005
272  6448.1237
271  6333.0721
270  6107.9214
269  6078.7514
268  5944.4845
267  5927.9808
266  5933.8771
265  5925.4404
264  6188.475
263  6051.8407
262  6037.4818
261  6134.5632
260  6192.9119
259  6285.1748
258  6027.732
257  5875.3135
256  6060.7638
255  5875.376
254  6111.5728
253  6167.3063
252  5955.485
251  5972.1302
250  5992.0931
249  6089.5495
248  6030.0273
247  6300.7169
246  6673.6802
245  6667.9509
244  7140.441
243  6707.2542
242  6070.0919
241  5854.3767
240  5764.791
239  6030.9016
238  6039.7361
237  6053.6962
236  6168.9125
235  5828.208
234  6188.1432
233  6104.3441
232  6337.3814
231  6247.6423
230  6199.4337
229  6069.7016
228  6193.992
227  6166.2812
226  5923.7514
225  6068.3143
224  5680.0611
223  5678.7654
222  5883.1302
221  5941.232
220  5855.3127
219  5850.9626
218  6045.1578
217  6033.5992
216  6193.1004
215  5887.952
214  5940.9288
213  6223.1066
212  6175.1996
211  6057.9704
210  5949.3802
209  5707.3288
208  5926.7501
207  6006.4224
206  5899.586
205  5854.1221
204  6271.4968
203  6057.2275
202  6230.4857
201  6404.8695
200  6210.4058
199  6218.2311
198  5913.5171
197  6216.9726
196  6061.8072
195  6255.2529
194  6156.0339
193  5912.507
192  6064.3488
191  6316.3732
190  6270.2659
189  6189.0261
188  6264.6969
187  6498.3217
186  6617.0617
185  6588.9452
184  6291.4167
183  6732.4399
182  6862.7201
181  6964.5532
180  7259.2842
179  7239.2624
178  7072.1136
177  6883.7028
176  6791.5151
175  6846.1722
174  6707.59
173  6633.8289
172  6358.6406
171  6184.3304
170  6033.6939
169  5641.9277
168  5367.1182
167  4952.9991
166  4958.5318
165  4741.7214
164  4665.7542
163  4660.7426
162  4873.7964
161  5058.9285
160  5714.2515
159  7879.1683
158  13187.344
157  22778.222
156  26929.243
155  19564.269
154  11094.303
153  7380.7196
152  5409.0427
151  4626.6482
150  4387.7976
149  4289.5391
148  4022.5852
147  3995.11
146  3858.6997
145  3730.6269
144  3780.1467
143  3707.3419
142  3589.024
141  3730.5679
140  3790.7583
139  3873.3339
138  3529.7427
137  3492.9703
136  3686.8858
135  3772.2073
134  3927.0242
133  3840.2926
132  4113.297
131  4294.3235
130  4370.1334
129  4434.5659
128  4867.3659
127  4553.2427
126  4523.4491
125  4202.4776
124  4033.9875
123  4024.3815
122  3825.1457
121  3503.9981
120  3216.2815
119  3077.6348
118  2812.6794
117  2571.4807
116  2404.5936
115  1932.3225
114  1775.0808
113  1652.1219
112  1809.3256
111  1570.4516
110  1658.7286
109  1893.3663
108  3447.13
107  8219.8735
106  21436.983
105  29591.687
104  16718.736
103  5426.8306
102  1952.3765
101  1309.7084
100  1246.8478
99  1139.0599
98  1122.6129
97  1012.1016
96  961.75144
95  992.28048
94  1070.8084
93  1175.5551
92  1041.4979
91  1008.4094
90  1047.3258
89  1158.644
88  999.31224
87  1017.2702
86  1126.9466
85  1131.9885
84  1056.1472
83  1142.9702
82  1151.15
81  1020.2216
80  1007.4344
79  1099.4536
78  1061.3834
77  1063.401
76  1142.6099
75  1061.4494
74  1053.1448
73  1007.3372
72  1149.3719
71  1113.0713
70  1063.155
69  1130.0808
68  1075.4374
67  1177.3693
66  1242.648
65  1128.2506
64  1146.9675
63  1146.2839
62  1055.9728
61  1192.0983
60  1207.2419
59  1199.8716
58  1257.2749
57  1233.3974
56  1255.2352
55  1213.5759
54  1339.9355
53  1387.1502
52  1431.2852
51  1293.4685
50  1335.8359
49  1325.4959
48  1271.7279
47  1288.6404
46  1194.8981
45  1176.3465
44  1234.2916
43  1049.6059
42  1124.432
41  1103.4589
40  1035.9281
39  979.91604
38  945.17759
37  963.57353
36  964.74147
35  1073.4166
34  1061.004
33  1152.2695
32  1265.8542
31  1534.4118
30  2078.8008
29  3195.6146
28  4399.426
27  4666.5984
26  3494.7239
25  1728.1503
24  837.02819
23  390.31283
22  271.45123
21  232.50809
20  220.17489
19  298.80374
18  467.46123
17  1005.5212
16  1219.4349
15  1167.7205
14  1102.2936
13  1173.2757
12  1078.0259
11  1097.2102
10  1141.899
9  1102.9177
8  862.34214
7  446.56701
6  207.68295
5  95.241774
4  47.47168
3  29.361387
2  18.766647
1  7.771875
0  0