# Region:            Survey 100 s 3k 36uA H=5  (2)
# Acquisition Date:  11/07/19 18:13:11 UTC
# Analysis Method:   XPS
# Analyzer:          Phoibos
# Analyzer Lens:     MediumArea:1.5kV
# Analyzer Slit:     4:3x20\B:open
# Scan Mode:         FixedAnalyzerTransmission
# Curves/Scan:       1
# Values/Curve:      1301
# Dwell Time:        0.1
# Excitation Energy: 1486.71
# Binding Energy:    1300
# Pass Energy:       50
# Bias Voltage:      90
# Detector Voltage:  1900
# Eff. Workfunction: 4.395
# Source:            Focus
# Comment:           
#
# Cycle: 0
# Number of Scans: 2
#
# Cycle: 0, Curve: 0
# Acquisition Date: 11/07/19 18:13:11 UTC
#
# ColumnLabels: energy counts/s
#
1300  15644.564
1299  15704.297
1298  15514.452
1297  15879.363
1296  16388.777
1295  15594.102
1294  15977.706
1293  16481.162
1292  15814.956
1291  15717.537
1290  15897.571
1289  15786.042
1288  15479.613
1287  15774.652
1286  16283.487
1285  16224.938
1284  15566.679
1283  15831.608
1282  15552.035
1281  15933.851
1280  15866.378
1279  15876.626
1278  15725.191
1277  15451.279
1276  15353.405
1275  15737.907
1274  16008.542
1273  15738.686
1272  15533.437
1271  15380.874
1270  15623.374
1269  15830.626
1268  15814.017
1267  15731.066
1266  15867.404
1265  15706.116
1264  15353.786
1263  15768.328
1262  16035.329
1261  15880.534
1260  15800.452
1259  15889.546
1258  15948.553
1257  15848.68
1256  16300.123
1255  15981.331
1254  16341.312
1253  15931.096
1252  16602.898
1251  15994.948
1250  15728.755
1249  16088.864
1248  15990.755
1247  15813.028
1246  15942.748
1245  15840.141
1244  15699.313
1243  15964.884
1242  16082.746
1241  16720.306
1240  16054.667
1239  16287.262
1238  16573.278
1237  16235.282
1236  16038.112
1235  16539.857
1234  16951.06
1233  17068.934
1232  16397.889
1231  16453.685
1230  16543.726
1229  16478.915
1228  16422.477
1227  16625.575
1226  16509.434
1225  16454.13
1224  16407.093
1223  16810.635
1222  16626.923
1221  16515.951
1220  16866.498
1219  16685.492
1218  16701.048
1217  16505.733
1216  16444.091
1215  16128.968
1214  16459.046
1213  16147.781
1212  15834.767
1211  15643.935
1210  15284.749
1209  15315.429
1208  16103.1
1207  16065.026
1206  15847.702
1205  16590.629
1204  15847.122
1203  15727.759
1202  15628.733
1201  15523.278
1200  15573.032
1199  15932.921
1198  15714.489
1197  15488.254
1196  16040.812
1195  15414.496
1194  15803.046
1193  15428.428
1192  15425.299
1191  15569.518
1190  15604.183
1189  15535.254
1188  15645.639
1187  15306.677
1186  15908.209
1185  15657.969
1184  15869.376
1183  15644.759
1182  15582.634
1181  15621.135
1180  15018.812
1179  15290.915
1178  15542.557
1177  15828.282
1176  16130.218
1175  15787.638
1174  16014.705
1173  15797.412
1172  15692.727
1171  15280.974
1170  15833.363
1169  15800.786
1168  15837.965
1167  15859.889
1166  15762.202
1165  15486.69
1164  15018.077
1163  15877.624
1162  15726.014
1161  15441.337
1160  15334.061
1159  15884.532
1158  15830.999
1157  16011.39
1156  15683.299
1155  15838.797
1154  15711.398
1153  15803.701
1152  16208.481
1151  16140.677
1150  16003.998
1149  15566.174
1148  16163.025
1147  15952.57
1146  15668.355
1145  15600.934
1144  15782.897
1143  15772.717
1142  15534.642
1141  15534.086
1140  15421.947
1139  15808.979
1138  15931.445
1137  15434.822
1136  15623.571
1135  15768.319
1134  15791.956
1133  15896.156
1132  15907.557
1131  15611.05
1130  15774.191
1129  15903.828
1128  15687.423
1127  15990.509
1126  15734.585
1125  15732.146
1124  16400.776
1123  15819.177
1122  16098.72
1121  16353.321
1120  16237.298
1119  16313.654
1118  16599.254
1117  16278.621
1116  15822.148
1115  16135.725
1114  16295.046
1113  16619.943
1112  16210.485
1111  15742.941
1110  16363.513
1109  16369.202
1108  16311.008
1107  16499.252
1106  16480.091
1105  16342.573
1104  16266.119
1103  15997.812
1102  16105.28
1101  16173.655
1100  15700.629
1099  16147.043
1098  16178.746
1097  16340.278
1096  16973.441
1095  16192.901
1094  16275.123
1093  16242.282
1092  16478.763
1091  16281.497
1090  16552.933
1089  16579.164
1088  16355.284
1087  16088.448
1086  16827.344
1085  16609.498
1084  16207.957
1083  16263.018
1082  16530.353
1081  16238.047
1080  16457.386
1079  16358.923
1078  16935.876
1077  17267.094
1076  17187.754
1075  17121.551
1074  17336.658
1073  16937.483
1072  17133.123
1071  16977.424
1070  16887.724
1069  16883.459
1068  16507.305
1067  16732.554
1066  17097.206
1065  16666.23
1064  16618.635
1063  16961.139
1062  17224.286
1061  17179.343
1060  17080.658
1059  17236.697
1058  17028.822
1057  17246.764
1056  17401.14
1055  17352.038
1054  17211.721
1053  17205.613
1052  17086.772
1051  17365.964
1050  17294.622
1049  17826.864
1048  17484.808
1047  17773.462
1046  17556.062
1045  17212.449
1044  17731.208
1043  17280.834
1042  17791.786
1041  17867.027
1040  17877.086
1039  17983.765
1038  17983.177
1037  18046.08
1036  17689.392
1035  17605.383
1034  17877.9
1033  17907.598
1032  17725.905
1031  17786.354
1030  18178.482
1029  18668.835
1028  18476.119
1027  18855.989
1026  19111.018
1025  18875.191
1024  18753.357
1023  18814.929
1022  18901.245
1021  19440.614
1020  19562.415
1019  19924.833
1018  19643.088
1017  19161.844
1016  18733.288
1015  18562.952
1014  18567.29
1013  18487.688
1012  18178.161
1011  18348.75
1010  18544.938
1009  19743.175
1008  20353.7
1007  20519.538
1006  21170.117
1005  21592.656
1004  22313.162
1003  22378.908
1002  22411.011
1001  21110.341
1000  20211.162
999  20100.406
998  19236.053
997  18438.094
996  18113.897
995  18148.725
994  16916.112
993  16847.597
992  17286.38
991  17716.037
990  18282.088
989  18302.267
988  18541.556
987  19573.556
986  21130.579
985  23506.592
984  25192.446
983  26448.256
982  28075.616
981  28671.073
980  26221.071
979  23157.531
978  19963.865
977  18360.776
976  16935.184
975  15662.893
974  14188.956
973  13339.992
972  12336.929
971  11548.346
970  10693.049
969  10117.953
968  9696.4842
967  9424.8788
966  9570.918
965  9625.7735
964  9811.432
963  9475.3332
962  9438.9538
961  9574.2869
960  9335.864
959  9810.6539
958  9595.6965
957  9397.699
956  9396.5812
955  9091.147
954  9331.6387
953  9674.6398
952  9443.1758
951  9591.5634
950  9145.7443
949  9434.2618
948  9654.1592
947  9330.9203
946  9376.0449
945  9422.3624
944  9237.0726
943  9695.056
942  9606.2072
941  9743.1216
940  9852.5148
939  9931.5208
938  9802.2787
937  9681.5325
936  9846.1041
935  9920.5666
934  9537.6152
933  9877.009
932  9933.7547
931  9675.441
930  9738.2137
929  9940.1498
928  9872.7807
927  9848.4154
926  9962.755
925  10273.155
924  10009.643
923  10212.595
922  9593.1396
921  9767.0078
920  9802.5413
919  9987.3623
918  10078.501
917  10273.336
916  10346.145
915  10462.767
914  10181.671
913  10254.483
912  9799.1521
911  9850.8867
910  10202.672
909  10402.757
908  10586.524
907  10451.51
906  10319.014
905  10045.614
904  10127.792
903  10072.363
902  10439.424
901  10089.029
900  10790.361
899  10513.385
898  10737.059
897  10675.135
896  10458.994
895  10435.941
894  9967.1137
893  10697.6
892  10550.58
891  10636.4
890  10434.721
889  10790.136
888  10735.481
887  10769.545
886  10602.749
885  10343.927
884  10733.697
883  11164.688
882  10725.057
881  10915.012
880  11030.651
879  10901.758
878  10856.283
877  11109.857
876  11096.767
875  11191.925
874  11146.948
873  11068.276
872  11222.493
871  11077.519
870  10999.587
869  11066.16
868  11387.903
867  11141.091
866  11116.227
865  10790.07
864  11077.54
863  11292.862
862  11277.353
861  11303.772
860  11206.515
859  10896.094
858  11405.318
857  11276.59
856  11461.867
855  11456.47
854  11264.294
853  11640.814
852  11763.423
851  11621.268
850  12089.184
849  11744.982
848  11600.042
847  11812.323
846  11629.602
845  11852.176
844  11955.796
843  11890.705
842  11784.475
841  11840.063
840  11715.539
839  12038.093
838  11918.87
837  12095.534
836  11795.263
835  12125.78
834  11780.534
833  11913.958
832  12259.171
831  11994.367
830  12321.384
829  11893.568
828  11913.21
827  12063.823
826  12236.407
825  12224.51
824  11944.457
823  11859.426
822  12333.185
821  12068.031
820  12010.111
819  12083.394
818  12333.525
817  12448.103
816  12474.977
815  12637.52
814  12419.152
813  12368.228
812  12265.854
811  12954.203
810  12545.394
809  12747.555
808  12577.47
807  13094.741
806  12806.896
805  12641.007
804  12906.749
803  12788.145
802  12914.669
801  12836.155
800  12810.181
799  12834.821
798  13370.132
797  13103.935
796  13235.563
795  13083.266
794  13174.905
793  13467.08
792  13038.065
791  12855.128
790  12824.771
789  13176.214
788  13669.564
787  13405.436
786  13375.791
785  13080.45
784  13451.964
783  13558.324
782  13279.339
781  13255.297
780  13108.436
779  13223.858
778  13257.599
777  13314.314
776  13600.19
775  13475.314
774  13527.433
773  13628.395
772  13413.954
771  13422.24
770  13344.966
769  13316.117
768  13503.114
767  13453.454
766  13414.107
765  14083.286
764  13555.279
763  13468.629
762  14122.456
761  13886.721
760  13894.349
759  13925.394
758  13862.99
757  14486.555
756  13885.463
755  13849.906
754  14281.768
753  14215.557
752  14183.099
751  14084.18
750  14246.315
749  14040.814
748  13962.746
747  13859.747
746  14104.349
745  14260.125
744  13716.477
743  13920.902
742  14120.656
741  14572.963
740  14509.242
739  14434.162
738  14109.427
737  14030.022
736  14186.493
735  14652.354
734  14375.286
733  14398.494
732  14701.896
731  14450.425
730  15105.476
729  14834.371
728  14945.02
727  14541.473
726  14670.741
725  14963.421
724  14570.814
723  14644.111
722  14573.507
721  14609.743
720  14704.001
719  15022.721
718  15048.258
717  14710.762
716  15015.492
715  14144.859
714  14737.421
713  15274.815
712  14911.581
711  14789.942
710  14779.518
709  14872.192
708  15357.692
707  15172.916
706  14914.574
705  15263.92
704  15123.741
703  15138.348
702  15140.277
701  15395.052
700  15347.36
699  15140.086
698  15007.668
697  15094.206
696  15061.341
695  15143.22
694  15229.677
693  15033.4
692  15480.008
691  15794.071
690  15692.887
689  14986.96
688  15172.953
687  15336.148
686  15737.262
685  15607.936
684  15751.717
683  15165.961
682  15475.318
681  15981.963
680  15664.469
679  16315.693
678  15958.805
677  15693.987
676  15740.552
675  15908.966
674  15923.439
673  15969.222
672  15887.395
671  16375.666
670  16055.903
669  16376.671
668  16753.336
667  15936.358
666  16222.286
665  16381.069
664  16344.108
663  16248.398
662  16197.201
661  16411.478
660  15924.879
659  16260.816
658  16568.907
657  16392.099
656  16537.6
655  16669.077
654  16797.225
653  16533.685
652  16487.778
651  16666.879
650  16622.52
649  16505.774
648  16486.307
647  17016.553
646  16554.736
645  16719.551
644  16808.674
643  16951.737
642  16959.685
641  17393.617
640  16866.609
639  17011.043
638  17083.194
637  17204.703
636  17241.821
635  17379.491
634  17217.215
633  17022.646
632  17140.644
631  17410.951
630  17348.664
629  17474.067
628  17537.495
627  17572.354
626  17212.075
625  17057.746
624  17269.414
623  17274.004
622  17565.126
621  17499.128
620  17557.321
619  17881.023
618  17805.626
617  17390.015
616  17543.491
615  18058.97
614  17556.754
613  17555.391
612  18037.546
611  17782.417
610  18385.037
609  17969.851
608  18205.682
607  17499.194
606  18133.116
605  18123.608
604  17623.169
603  17732.04
602  18014.876
601  18291.372
600  17884.634
599  17195.297
598  17903.812
597  18244.917
596  18074.32
595  18492.597
594  18788.468
593  18832.254
592  18448.533
591  18603.408
590  19145.613
589  19509.269
588  18546.535
587  18618.001
586  18852.975
585  18538.318
584  18903.078
583  18699.072
582  18557.806
581  18722.403
580  18601.901
579  18756.005
578  18790.142
577  19194.77
576  18869.398
575  18611.656
574  18803.792
573  18220.164
572  18291.623
571  17659.345
570  17547.81
569  17857.061
568  17142.848
567  17741.218
566  18343.034
565  18559.014
564  18688.019
563  19497.077
562  20351.802
561  21202.088
560  22163.362
559  22364.788
558  22839.339
557  23005.827
556  22278.224
555  21200.699
554  20140.53
553  18655.635
552  17424.961
551  16566.724
550  16176.028
549  14802.649
548  13382.157
547  12872.055
546  12272.327
545  11060.086
544  10118.699
543  9395.4107
542  8816.7482
541  8184.7161
540  7949.6773
539  8484.1231
538  10852.206
537  17645.754
536  42119.851
535  102897.64
534  117018.52
533  47808.208
532  14055.314
531  8047.8325
530  6430.3752
529  5981.8057
528  6060.0317
527  5949.4429
526  5974.3875
525  5782.3773
524  5401.3158
523  5547.1322
522  5830.9814
521  5890.4117
520  6080.4697
519  5658.2328
518  5766.9798
517  5871.0298
516  5941.5885
515  5863.0109
514  5896.1917
513  5831.4937
512  5740.0646
511  5946.1087
510  5952.367
509  5829.8429
508  5685.8052
507  5763.0195
506  5958.4911
505  6043.9882
504  5712.6282
503  5770.8977
502  5802.7133
501  5771.1902
500  5730.6923
499  5780.276
498  5659.8444
497  5687.6211
496  5729.9068
495  5862.4175
494  5813.3457
493  5584.378
492  5728.2991
491  5782.1157
490  5721.534
489  5821.83
488  6137.6674
487  5993.1685
486  5815.4174
485  5787.2514
484  5875.4109
483  6013.1694
482  5868.0675
481  5838.6437
480  5830.4144
479  5901.2136
478  5999.5542
477  5893.6363
476  5965.029
475  6006.0698
474  5900.9491
473  5929.3929
472  6118.7103
471  5890.3408
470  5938.5136
469  6018.9319
468  6051.0202
467  5996.3383
466  5857.2296
465  5728.2304
464  5800.3843
463  6136.6471
462  6163.6496
461  6093.5556
460  6043.9989
459  5880.1446
458  6058.1659
457  5924.0162
456  5726.3773
455  5875.8883
454  5865.8622
453  6006.4553
452  6139.9286
451  6110.7609
450  5952.9704
449  5903.0191
448  5875.0728
447  6239.2918
446  6231.7089
445  6388.5361
444  6322.6761
443  6351.4938
442  6233.0478
441  6362.4612
440  6441.7458
439  6201.0628
438  5977.6374
437  6047.7683
436  6061.9755
435  6053.889
434  5829.2482
433  5982.647
432  6148.1048
431  6044.5599
430  6168.5455
429  6073.9971
428  5962.3243
427  6080.7318
426  6180.2884
425  6175.2736
424  5968.7522
423  6027.5242
422  6157.6723
421  6247.6354
420  6244.1283
419  6108.6155
418  6494.8467
417  6200.9694
416  6235.0575
415  6106.5423
414  6221.556
413  5957.1701
412  6017.3182
411  6107.5555
410  6359.297
409  6134.747
408  6263.3162
407  6108.7993
406  6370.6363
405  6481.8245
404  6233.8321
403  6306.0816
402  6199.3241
401  6655.7262
400  6226.3383
399  6413.5104
398  6139.39
397  6045.7784
396  6407.7203
395  6184.3919
394  6131.8281
393  5973.337
392  6170.8438
391  6310.4976
390  5962.7453
389  6196.5517
388  6071.7541
387  6078.1925
386  6288.5731
385  6092.6086
384  6058.0208
383  6202.9661
382  6147.118
381  6183.8999
380  6142.9954
379  6218.763
378  6205.6959
377  6207.802
376  6218.9036
375  6280.3387
374  6338.3051
373  6402.4121
372  6199.3175
371  6070.3422
370  6407.2173
369  6325.1385
368  6575.0076
367  6324.2838
366  6198.4973
365  6408.651
364  6318.8923
363  6442.791
362  6170.2013
361  6124.0447
360  5983.264
359  6412.6695
358  6543.4267
357  6339.8491
356  6603.0857
355  6515.0987
354  6882.6408
353  6780.8995
352  6410.2055
351  6899.2411
350  6907.3799
349  7099.3668
348  6622.082
347  6138.107
346  6115.937
345  6227.1977
344  6442.4178
343  6014.271
342  6226.2233
341  6267.8404
340  6059.1468
339  6382.0661
338  6452.3912
337  6406.3812
336  6266.9698
335  6360.7222
334  6484.8542
333  6134.1489
332  6369.0382
331  6304.0094
330  6358.8457
329  6348.5533
328  6121.0997
327  6149.83
326  6338.1391
325  6415.8208
324  6265.3086
323  6427.646
322  6660.2029
321  6832.4811
320  6681.4668
319  6669.586
318  6513.8652
317  6302.0979
316  6329.9418
315  6436.145
314  6557.9884
313  6240.0899
312  6311.1246
311  6543.6709
310  6506.921
309  6367.2701
308  6130.8832
307  6184.9156
306  6379.3453
305  6534.6309
304  6376.554
303  6166.9532
302  6136.0833
301  6162.9542
300  6199.755
299  6252.5096
298  6304.8843
297  6478.5745
296  6262.6028
295  6563.0865
294  6408.1453
293  6347.6118
292  6487.694
291  6628.466
290  6464.4627
289  6357.0641
288  6590.3385
287  7836.5958
286  9309.9961
285  8312.0725
284  7108.6204
283  6454.719
282  5930.7041
281  5998.589
280  6491.5571
279  6408.6883
278  6182.0586
277  5928.6063
276  6333.7649
275  6019.1698
274  5881.602
273  6014.2526
272  5720.0252
271  6103.6455
270  6027.2583
269  5861.3562
268  5856.5124
267  6085.3946
266  6033.1549
265  5832.6191
264  6136.9853
263  6067.7204
262  5816.9738
261  5928.0964
260  5968.44
259  5837.6555
258  6000.7047
257  6045.5022
256  5870.787
255  5667.8085
254  5871.7761
253  5856.5874
252  5820.7682
251  5635.6367
250  5813.5203
249  6143.2571
248  5931.1256
247  6096.9391
246  6482.0558
245  6552.8847
244  6822.9945
243  6842.5597
242  6271.7355
241  5929.6381
240  5471.828
239  5587.1168
238  5781.257
237  6055.0672
236  6008.7682
235  5787.7429
234  5913.7173
233  5928.3789
232  6080.9267
231  6126.4628
230  6391.3912
229  6042.7598
228  6014.1152
227  5758.1237
226  5781.4517
225  6153.4577
224  5971.6922
223  5774.6555
222  5707.2769
221  5910.1917
220  6013.9854
219  5883.7224
218  5892.5141
217  5993.0866
216  5995.2215
215  5826.8464
214  6063.14
213  6268.1216
212  6425.9532
211  6090.1286
210  6226.0707
209  6094.0038
208  5932.3404
207  5931.6541
206  6585.2173
205  6477.3978
204  6096.6015
203  6465.1035
202  6330.3962
201  6267.6625
200  6304.8352
199  6312.1164
198  6160.6258
197  6002.0578
196  6132.3905
195  6358.995
194  6088.1286
193  6177.632
192  6331.8651
191  6086.8166
190  6092.318
189  6087.7687
188  6068.0758
187  6175.2502
186  6015.9833
185  6302.1821
184  6749.9457
183  6335.5971
182  6672.3674
181  6857.5212
180  7014.9455
179  7491.3107
178  7392.5283
177  6865.9118
176  6908.18
175  6800.9142
174  6628.6513
173  6455.302
172  6230.4235
171  5831.7029
170  5944.3661
169  5766.3682
168  5430.0432
167  5145.9373
166  4696.773
165  4721.481
164  4724.7725
163  4453.7022
162  4653.718
161  4903.8093
160  5859.215
159  7833.5868
158  12013.437
157  21116.564
156  26242.201
155  19792.834
154  11933.871
153  7377.8951
152  5494.7818
151  4735.5185
150  4292.9241
149  4052.8024
148  4120.635
147  4012.9532
146  3841.9607
145  3587.1739
144  3816.4014
143  3875.0344
142  3784.8377
141  3709.981
140  3618.2726
139  3278.6766
138  3591.2938
137  3813.1002
136  3592.4681
135  3675.2903
134  3760.3746
133  3752.4304
132  3932.1009
131  4248.303
130  4354.2317
129  4367.8144
128  4411.9248
127  4735.1597
126  4331.908
125  4103.1568
124  3997.9211
123  3849.4113
122  3787.8372
121  3460.8478
120  3420.0199
119  3124.2901
118  2837.3452
117  2748.1895
116  2297.0497
115  2015.209
114  1852.5162
113  1672.038
112  1544.9296
111  1545.7322
110  1568.7432
109  1943.9531
108  2821.5401
107  6940.9393
106  19217.737
105  28898.443
104  18356.93
103  6468.107
102  2552.6302
101  1467.5236
100  1254.2833
99  943.91113
98  973.77297
97  1054.6718
96  882.46383
95  931.94554
94  941.5904
93  961.75795
92  1030.7675
91  1160.7526
90  952.31004
89  1137.6322
88  963.43825
87  1016.105
86  1077.2368
85  1154.5398
84  1027.5266
83  1148.0622
82  1046.3078
81  1095.0298
80  1147.1638
79  1071.5861
78  1061.4699
77  1146.1827
76  1067.1512
75  1118.8089
74  1230.1466
73  1171.0771
72  1048.5988
71  1183.6262
70  1084.4022
69  1083.4863
68  1200.9033
67  1192.4652
66  1232.2216
65  1063.5315
64  1073.133
63  1191.6891
62  1213.2885
61  1209.953
60  1160.7056
59  1247.6669
58  1241.7661
57  1190.7885
56  1485.9827
55  1279.8442
54  1287.2193
53  1182.7444
52  1361.2476
51  1379.9333
50  1321.388
49  1231.2963
48  1372.4967
47  1373.7335
46  1288.2917
45  1199.8283
44  1067.4348
43  1129.1448
42  1128.9135
41  979.713
40  974.05022
39  945.40282
38  891.58429
37  903.49873
36  921.47785
35  916.79034
34  936.14764
33  1129.0883
32  1265.7662
31  1531.2729
30  1911.5927
29  3029.9945
28  4154.0126
27  4505.1018
26  3438.9391
25  1828.6505
24  851.83363
23  521.70924
22  357.58515
21  312.56976
20  291.3284
19  260.83302
18  403.90458
17  783.51294
16  1131.6721
15  1189.095
14  1174.2872
13  1054.7769
12  979.59486
11  927.7493
10  1115.6379
9  1008.9538
8  918.21163
7  558.07769
6  235.36141
5  142.24051
4  63.225477
3  42.174272
2  34.312725
1  13.487475
0  11.579175