# Region:            Survey 200s 3k 36uA H=5 (4)
# Acquisition Date:  11/07/19 22:07:51 UTC
# Analysis Method:   XPS
# Analyzer:          Phoibos
# Analyzer Lens:     MediumArea:1.5kV
# Analyzer Slit:     4:3x20\B:open
# Scan Mode:         FixedAnalyzerTransmission
# Curves/Scan:       1
# Values/Curve:      1301
# Dwell Time:        0.1
# Excitation Energy: 1486.71
# Binding Energy:    1300
# Pass Energy:       50
# Bias Voltage:      90
# Detector Voltage:  1900
# Eff. Workfunction: 4.395
# Source:            Focus
# Comment:           
#
# Cycle: 0
# Number of Scans: 2
#
# Cycle: 0, Curve: 0
# Acquisition Date: 11/07/19 22:07:51 UTC
#
# ColumnLabels: energy counts/s
#
1300  15691.333
1299  15199.632
1298  15122.755
1297  15212.5
1296  15250.358
1295  15106.143
1294  15265.31
1293  15406.229
1292  15407.249
1291  14604.537
1290  14730.324
1289  15102.107
1288  14785.302
1287  14891.125
1286  14959.583
1285  15198.591
1284  15005.397
1283  14578.956
1282  14579.012
1281  15011.552
1280  14980.158
1279  15093.652
1278  15084.357
1277  14764.91
1276  14855.243
1275  15123.189
1274  15430.697
1273  14862.386
1272  14699.362
1271  14919.154
1270  14982.033
1269  15490.209
1268  15330.201
1267  15311.547
1266  15021.335
1265  14455.718
1264  14734.475
1263  14883.931
1262  14958.383
1261  14804.798
1260  14615.91
1259  14986.551
1258  14867.208
1257  14631.892
1256  14621.445
1255  15155.861
1254  14945.733
1253  14992.648
1252  14774.749
1251  15267.19
1250  14935.203
1249  14856.789
1248  14828.455
1247  14924.347
1246  14765.102
1245  14790.575
1244  15011.561
1243  14831.92
1242  14758.427
1241  14751.932
1240  15028.793
1239  14898.606
1238  14378.082
1237  14964.15
1236  14879.411
1235  14747.152
1234  15150.982
1233  14832.737
1232  14573.746
1231  14799.5
1230  14908.202
1229  14848.808
1228  14868.651
1227  14804.181
1226  15197.775
1225  15249.164
1224  15143.381
1223  14854.823
1222  14927.507
1221  14600.759
1220  14975.473
1219  14724.064
1218  14817.776
1217  15291.593
1216  14511.531
1215  14741.103
1214  14816.725
1213  14443.484
1212  14521.656
1211  14711.734
1210  15197.756
1209  15036.337
1208  14767.035
1207  14704.051
1206  15009.95
1205  15126.766
1204  15283.89
1203  14905.721
1202  15273.5
1201  14879.991
1200  14943.669
1199  14559.021
1198  15019.039
1197  15026.431
1196  14771.81
1195  14985.878
1194  15512.836
1193  14918.559
1192  15073.64
1191  14896.545
1190  14936.259
1189  14995.611
1188  14990.582
1187  15068.809
1186  15105.849
1185  14690.603
1184  14777.653
1183  15015.046
1182  15186.903
1181  14853.752
1180  14887.091
1179  15195.753
1178  14928.853
1177  14750.668
1176  15288.017
1175  15243.364
1174  14817.135
1173  14826.361
1172  14965.933
1171  15315.561
1170  15135.508
1169  14982.328
1168  14548.474
1167  14664.06
1166  15025.134
1165  14968.495
1164  15111.031
1163  14762.546
1162  14666.507
1161  14775.376
1160  15230.602
1159  15276.434
1158  14723.317
1157  15207.661
1156  15393.18
1155  14754.8
1154  14870.658
1153  14940.456
1152  15515.57
1151  15292.027
1150  15350.661
1149  14833.917
1148  15306.212
1147  14876.54
1146  15330.416
1145  14949.186
1144  15428.738
1143  15150.274
1142  15019.646
1141  15419.531
1140  15364.272
1139  15024.678
1138  15060.179
1137  15248.388
1136  15462.22
1135  15558.185
1134  15403.996
1133  14827.072
1132  15250.853
1131  15267.362
1130  15539.245
1129  15563.492
1128  15063.065
1127  15637.828
1126  15465.737
1125  15068.343
1124  15102.113
1123  15523.466
1122  15409.578
1121  15039.058
1120  15079.982
1119  15158.904
1118  15655.23
1117  15071.163
1116  15229.03
1115  15577.402
1114  15937.751
1113  15857.135
1112  15524.787
1111  15297.733
1110  15206.789
1109  15422.015
1108  15771.165
1107  15840.783
1106  15654.163
1105  15531.765
1104  15285.7
1103  15359.382
1102  15574.583
1101  14949.573
1100  15702.839
1099  15066.454
1098  15404.833
1097  15468.989
1096  15359.838
1095  14936.955
1094  15287.506
1093  15387.19
1092  15571.384
1091  15775.288
1090  15971.368
1089  15808.447
1088  15465.513
1087  15893.434
1086  15516.117
1085  15365.353
1084  15371.683
1083  15433.42
1082  15717.197
1081  15358.906
1080  15654.899
1079  15752.919
1078  15685.046
1077  15467.21
1076  15719.613
1075  15841.275
1074  16261.481
1073  15995.386
1072  15804.359
1071  15901.55
1070  16253.33
1069  15884.583
1068  15664.555
1067  15810.926
1066  15536.053
1065  16141.927
1064  16496.595
1063  16428.957
1062  16348.557
1061  15934.827
1060  16162.644
1059  16409.861
1058  16220.01
1057  16427.573
1056  16239.887
1055  16740.531
1054  17077.844
1053  16428.794
1052  17022.634
1051  16633.368
1050  16412.652
1049  16647.831
1048  17183.334
1047  16841.432
1046  16605.093
1045  16665.336
1044  17632.501
1043  17563.723
1042  17344.684
1041  17001.809
1040  17014.701
1039  17266.071
1038  17294.169
1037  17262.956
1036  17333.369
1035  17063.965
1034  17286.507
1033  17220.182
1032  18057.189
1031  17446.141
1030  17813.841
1029  18114.951
1028  17725.06
1027  17721.703
1026  18644.068
1025  18100.924
1024  18412.058
1023  18193.483
1022  18470.1
1021  18867.025
1020  18983.748
1019  19121.785
1018  19231.666
1017  19002.087
1016  18353.732
1015  17739.828
1014  17877.485
1013  18395.646
1012  18622.347
1011  18996.617
1010  19333.164
1009  19353.906
1008  20369.314
1007  21130.439
1006  20834.29
1005  21232.402
1004  21464.48
1003  21961.635
1002  21755.81
1001  21081.402
1000  20277.282
999  19658.969
998  19013.311
997  18613.064
996  18133.002
995  17338.366
994  16857.023
993  17180.753
992  16812.355
991  17435.179
990  17795.943
989  18334.134
988  18117.285
987  19469.97
986  21757.303
985  23759.584
984  25812.46
983  28169.785
982  30093.007
981  30211.429
980  26492.335
979  22928.228
978  20162.069
977  18105.514
976  16669.823
975  15161.467
974  14224.277
973  13341.514
972  12099.335
971  10900.995
970  10433.373
969  9544.748
968  9128.1863
967  8936.5877
966  8658.4085
965  8320.2719
964  8665.9329
963  8708.99
962  8464.7333
961  8152.4331
960  8713.9901
959  8512.5203
958  8660.1075
957  8575.8748
956  8340.7347
955  8767.4303
954  8682.9343
953  8591.2656
952  8829.4076
951  8942.7064
950  8701.0887
949  8644.7002
948  8576.4139
947  8461.9053
946  8805.0201
945  8803.4599
944  8968.5406
943  8675.3205
942  8643.6315
941  8972.2933
940  8781.5724
939  8983.8134
938  9127.0263
937  9127.4472
936  9193.0796
935  9087.2969
934  8820.0187
933  8849.5285
932  8946.2233
931  8899.9764
930  9317.1905
929  8839.3574
928  8905.4964
927  9240.5467
926  9072.0524
925  8911.9914
924  9284.4289
923  9056.5044
922  9145.3556
921  9468.0932
920  9259.033
919  9019.0605
918  9166.4518
917  9181.5889
916  8940.7769
915  9359.573
914  9249.4563
913  9070.2586
912  9601.1481
911  9464.9567
910  9030.0411
909  9051.3519
908  9218.1365
907  9253.2024
906  9271.5884
905  9408.4927
904  9446.5653
903  9410.4552
902  9517.5676
901  9696.8473
900  9653.646
899  9822.9222
898  9688.8857
897  9616.1915
896  9440.7072
895  9527.4995
894  9310.413
893  9634.4943
892  9537.2039
891  9864.6239
890  10134.606
889  9662.3003
888  9740.2634
887  10183.013
886  10048.578
885  10043.042
884  10111.63
883  9809.7664
882  9697.2378
881  9714.5511
880  9547.3905
879  9999.6433
878  9995.2547
877  9818.2882
876  9864.198
875  10087.733
874  9811.7424
873  10253.556
872  9818.4462
871  10244.193
870  10310.33
869  10369.819
868  10339.828
867  9920.2085
866  10065.302
865  10437.576
864  10473.744
863  10489.493
862  10595.88
861  10458.035
860  10504.691
859  10656.092
858  10694.137
857  10703.121
856  10314.727
855  10461.798
854  10596.409
853  10898.989
852  10645.414
851  10560.815
850  10755.044
849  10848.837
848  10835.276
847  10665.768
846  11149.313
845  11028.936
844  11143.71
843  10812.659
842  11060.63
841  10905.611
840  11117.558
839  11203.266
838  11348.426
837  10853.192
836  10839.152
835  11290.001
834  11164.177
833  11167.034
832  11021.728
831  11001.308
830  10875.548
829  11008.265
828  10724.089
827  10861.185
826  11050.156
825  11369.941
824  11588.434
823  11381.496
822  11283.181
821  11469.752
820  11411.612
819  11236.849
818  11546.246
817  11361.836
816  11252.54
815  11493.708
814  11708.376
813  11617.846
812  11713.342
811  11439.229
810  11614.807
809  11579.759
808  11887.099
807  11722.205
806  11791.696
805  11830.612
804  11909.017
803  11617.894
802  11676.523
801  11618.946
800  11777.717
799  11645.173
798  12022.79
797  12320.27
796  12295.267
795  11843.105
794  12017.963
793  12060.94
792  12798.912
791  12157.938
790  11898.907
789  12178.188
788  12416.854
787  12482.557
786  12393.544
785  12618.971
784  12238.499
783  12190.352
782  11753.878
781  11830.704
780  12108.659
779  12204.154
778  12077.68
777  12567.822
776  12469.288
775  12382.958
774  12659.371
773  12303.088
772  12909.098
771  12726.329
770  13089.272
769  12825.417
768  12450.254
767  12612.401
766  12801.358
765  12634.179
764  12654.775
763  12991.055
762  12466.926
761  12998.802
760  12632.048
759  12884.672
758  13030.994
757  12925.139
756  12960.994
755  13140.32
754  13294.624
753  12987.259
752  12974.002
751  12902.61
750  12951.053
749  13100.669
748  13211.092
747  12917.533
746  13253.563
745  13240.266
744  12969.629
743  13243.307
742  13469.822
741  13448.207
740  13417.364
739  13310.009
738  13466.89
737  13370.171
736  13176.458
735  13621.863
734  13606.168
733  13819.931
732  13803.854
731  13440.731
730  13453.19
729  13930.381
728  13740.332
727  13345.615
726  13562.808
725  13742.006
724  13815.676
723  13681.082
722  13891.388
721  14455.277
720  14299.093
719  14154.442
718  14058.515
717  14190.182
716  14376.493
715  13965.543
714  14401.783
713  13713.387
712  14016.115
711  14074.631
710  14373.356
709  14240.511
708  14001.626
707  14096.777
706  14521.94
705  15033.778
704  14616.641
703  14294.866
702  14598.354
701  14645.16
700  14835.896
699  14622.398
698  14585.73
697  14741.553
696  14421.704
695  14668.46
694  14425.075
693  14855.012
692  14972.187
691  14883.782
690  14873.818
689  14849.726
688  14837.762
687  14418.581
686  14498.283
685  15077.788
684  15365.423
683  15275.008
682  15070.463
681  15102.078
680  15223.713
679  14568.15
678  14988.351
677  15337.311
676  15346.548
675  15839.712
674  15052.426
673  14714.445
672  15896.725
671  15612.881
670  15464.222
669  15808.73
668  15424.966
667  15641.905
666  15382.841
665  15386.159
664  15462.6
663  15666.009
662  15994.031
661  15742.169
660  15799.832
659  16016.951
658  16163.118
657  16031.128
656  15935.635
655  16258.029
654  16073.57
653  16239.949
652  15937.552
651  16525.05
650  16191.232
649  16047.866
648  16577.885
647  16584.694
646  16506.198
645  16146.935
644  16375.374
643  16813.747
642  16417.264
641  16579.553
640  16927.332
639  16824.743
638  17561.706
637  16649.274
636  17395.571
635  17086.602
634  16598.633
633  16559.662
632  16931.69
631  17006.553
630  16637.128
629  17366.777
628  17266.496
627  17267.794
626  17089.452
625  16700.381
624  16784.018
623  16934.732
622  17464.193
621  17914.753
620  17031.917
619  17283.66
618  17456.097
617  17751.572
616  17573.443
615  17816.25
614  17646.803
613  16955.463
612  17482.47
611  17767.642
610  17680.192
609  18302.387
608  18412.711
607  17864.491
606  17711.339
605  18057.579
604  18334.645
603  18592.903
602  18807.385
601  18161.921
600  17927
599  18279.447
598  18319.753
597  18428.65
596  18802.168
595  17895.233
594  18310.558
593  18843.303
592  18609.845
591  18583.82
590  18375.799
589  18898.517
588  19286.987
587  18504.924
586  18893.223
585  19551.911
584  19597.981
583  19043.28
582  19176.376
581  19113.691
580  19490.007
579  19169.098
578  19221.207
577  18947.58
576  19130.348
575  19658.858
574  19680.044
573  18843.725
572  18543.859
571  18336.482
570  18377.002
569  17976.444
568  17966.217
567  18016.975
566  18380.732
565  19467.169
564  19738.514
563  20382.173
562  21268.546
561  22096.409
560  22782.397
559  23673.132
558  23815.521
557  23402.999
556  23318.172
555  22446.449
554  20534.47
553  19453.402
552  18152.865
551  17564.057
550  16663.395
549  15602.707
548  14542.766
547  13449.286
546  13155.415
545  12037.824
544  10600.711
543  9563.9969
542  9176.888
541  9062.8918
540  8878.8743
539  8711.7269
538  9833.2973
537  16089.748
536  43348.553
535  111221.63
534  130687.35
533  55755.564
532  15330.814
531  8434.4279
530  7335.9982
529  6839.2296
528  6568.1935
527  6749.5446
526  6426.7032
525  6397.0621
524  6540.5255
523  6353.9309
522  6613.8608
521  6438.1232
520  6545.5615
519  6360.4371
518  6259.9912
517  6538.975
516  6731.9876
515  6155.9682
514  6414.0914
513  6400.8701
512  6756.6709
511  6677.3048
510  6490.8934
509  6564.9487
508  6508.0742
507  6473.1033
506  6754.7517
505  6503.3967
504  6331.7877
503  6678.0218
502  6551.8275
501  6742.3572
500  6440.5332
499  6538.7507
498  6611.3504
497  6848.9958
496  6886.1918
495  6689.7993
494  6715.8913
493  6712.2091
492  6884.7326
491  6450.7557
490  6225.359
489  6567.1481
488  6631.8401
487  6432.226
486  6593.1414
485  6885.1927
484  7020.2327
483  6661.2012
482  6885.824
481  6785.1246
480  6741.1213
479  6658.4385
478  6490.4551
477  6601.3972
476  6363.8083
475  6651.1461
474  6909.4011
473  6670.9729
472  6669.7307
471  6869.4903
470  6782.9947
469  6764.3941
468  6670.8361
467  6818.8493
466  6782.6582
465  6733.2368
464  6819.6523
463  6977.6881
462  6968.9165
461  6626.8022
460  6523.1133
459  6671.6319
458  6979.0788
457  6814.1041
456  6816.2112
455  6792.547
454  6683.8574
453  6897.5017
452  6924.087
451  6835.18
450  7011.7416
449  6876.579
448  6807.1633
447  7090.0194
446  6861.5928
445  6909.0323
444  6615.3748
443  6619.8932
442  6870.3545
441  7184.9438
440  6709.0753
439  6794.083
438  6792.2373
437  6886.998
436  6991.35
435  6766.0908
434  6974.8409
433  6992.6321
432  7120.9124
431  7213.2911
430  7036.8009
429  6743.7363
428  6702.4862
427  7050.3305
426  6999.0087
425  6860.6858
424  7006.8701
423  7034.0177
422  6896.6193
421  7125.4484
420  7058.7254
419  7034.0416
418  6985.4204
417  6946.1604
416  7011.9918
415  6945.9518
414  6709.2499
413  6729.7932
412  7086.7019
411  7030.0995
410  6851.1877
409  6946.9157
408  6878.4173
407  7004.78
406  7296.1257
405  7100.4426
404  7031.7315
403  6959.3395
402  6942.733
401  7652.706
400  7555.6665
399  7371.979
398  7300.9359
397  6998.9784
396  7013.4656
395  7245.8781
394  6845.0939
393  7184.9605
392  7036.2415
391  7143.0298
390  7219.9362
389  7148.031
388  7119.2127
387  7218.2759
386  6992.7855
385  7200.3775
384  7246.2935
383  7218.2029
382  6762.7274
381  7237.099
380  7308.1126
379  7002.0767
378  7116.4402
377  7300.5863
376  7344.6715
375  7511.7222
374  7093.6222
373  6810.8875
372  7129.0543
371  7293.4282
370  7087.2288
369  7189.2777
368  7492.3933
367  7096.9103
366  6994.3621
365  7181.1672
364  7341.8766
363  7686.1245
362  7293.5848
361  7248.3589
360  7063.9267
359  7138.5202
358  7405.5532
357  6989.5548
356  6784.7854
355  7002.4269
354  7297.3941
353  7545.4331
352  7356.1348
351  7396.1884
350  7702.6157
349  7517.9443
348  7372.7015
347  7044.3282
346  7303.66
345  6828.3832
344  7259.5679
343  7152.2488
342  7037.993
341  7133.0089
340  7345.5321
339  7555.0819
338  6978.3593
337  7245.1714
336  7256.372
335  7358.3919
334  7341.677
333  7168.8469
332  6941.2101
331  6753.594
330  7063.6228
329  7340.2066
328  7350.7673
327  6867.8252
326  7007.1765
325  7249.7087
324  7144.7676
323  7399.5786
322  7597.7107
321  7832.9012
320  7804.657
319  7423.5537
318  7270.0527
317  7628.1231
316  7312.7708
315  7343.1502
314  7318.7799
313  7076.7299
312  6999.4011
311  7254.7613
310  7295.3013
309  7418.0856
308  7032.0232
307  6972.7179
306  7367.5957
305  7271.7959
304  6973.1006
303  7014.1525
302  6886.3239
301  7499.9158
300  7115.633
299  7103.1212
298  7241.4651
297  6974.8814
296  7088.6762
295  7021.6793
294  7064.1203
293  6955.3305
292  7283.4533
291  7398.2079
290  7052.3372
289  6844.6202
288  6756.2355
287  7288.1155
286  7337.3882
285  7220.5467
284  7194.4108
283  7296.637
282  7173.0967
281  7106.3641
280  6926.1695
279  7193.699
278  7018.4007
277  6817.1262
276  6850.3007
275  6934.3085
274  7080.3076
273  6728.1592
272  7013.3286
271  7052.3806
270  7106.051
269  7273.4734
268  6693.6292
267  6963.7814
266  7140.2539
265  7110.1695
264  7160.2656
263  6924.819
262  6728.6518
261  6972.6851
260  6613.6098
259  6869.9292
258  7149.38
257  7032.334
256  6844.9337
255  6766.0537
254  6646.9971
253  6681.5636
252  6870.8696
251  6782.297
250  6576.759
249  6516.5132
248  6693.6704
247  6878.8697
246  7300.0778
245  7560.9276
244  7971.7695
243  7840.5152
242  6981.3129
241  6748.3882
240  6655.3686
239  6424.9028
238  6432.3927
237  6423.5605
236  6616.826
235  6835.6701
234  7039.233
233  6978.7589
232  6789.4719
231  7005.6826
230  6473.4829
229  6463.5223
228  6617.3502
227  6662.7657
226  6429.6926
225  6399.3994
224  6546.1549
223  6586.0563
222  6865.7599
221  6904.1039
220  6809.8759
219  6827.0407
218  6748.0889
217  6650.6196
216  6682.5966
215  6648.7073
214  6866.9774
213  6623.5113
212  6761.2279
211  6577.4952
210  6629.1851
209  6339.4856
208  6529.5064
207  6653.1758
206  6394.7571
205  6637.5376
204  6811.0652
203  6584.8937
202  6722.7395
201  6820.2344
200  6781.096
199  6676.6527
198  6445.8332
197  6830.3462
196  6833.4546
195  6815.5705
194  6894.7508
193  6910.4918
192  7134.2268
191  6480.3841
190  6257.552
189  6914.1167
188  6695.9906
187  6725.9706
186  6780.1822
185  6714.1495
184  6881.1775
183  6980.8426
182  7041.4547
181  7397.0305
180  7832.8161
179  7465.764
178  7579.7113
177  7557.0048
176  7437.2979
175  7338.8871
174  7124.9947
173  6985.6613
172  6880.9819
171  6385.7453
170  6389.3574
169  6044.6201
168  5515.6887
167  5485.9457
166  5190.2891
165  5209.5884
164  4952.8817
163  4810.5267
162  4848.7266
161  5187.2995
160  5818.7587
159  7348.7817
158  12686.169
157  21273.599
156  27534.118
155  21691.103
154  12793.778
153  7917.9816
152  5869.9304
151  4967.4111
150  4516.4751
149  4307.8416
148  4247.8706
147  4063.938
146  4196.163
145  3880.5467
144  3845.1422
143  3990.0019
142  3649.3996
141  3864.582
140  3572.0486
139  3719.5811
138  3739.4925
137  3799.6603
136  3844.8377
135  3806.2237
134  3936.2593
133  3683.5582
132  3878.212
131  4199.2882
130  4476.1874
129  4455.1146
128  4587.1703
127  4582.4875
126  4383.2419
125  4430.0234
124  4528.794
123  4195.5119
122  3935.1179
121  3637.7754
120  3334.2836
119  3199.7619
118  3035.1174
117  2762.7241
116  2499.005
115  2124.7739
114  1915.5134
113  1818.8455
112  1747.105
111  1606.5701
110  1576.8773
109  1761.4034
108  2492.7701
107  6374.8679
106  18960.579
105  30857.348
104  20942.637
103  6541.9625
102  2114.7382
101  1364.2504
100  1623.1783
99  1443.0513
98  1011.3123
97  1085.1265
96  991.4121
95  1068.6248
94  1093.265
93  943.53681
92  1027.3085
91  984.01797
90  990.40352
89  998.44875
88  961.25328
87  1039.7879
86  1070.4234
85  1046.6635
84  1131.5307
83  1180.5544
82  1172.8824
81  1101.2699
80  1150.2437
79  1105.3459
78  1120.9653
77  1071.8706
76  1100.8023
75  1185.0396
74  1169.2277
73  1154.9395
72  1179.4525
71  1078.8532
70  1040.1409
69  1128.2647
68  1032.7472
67  1012.1924
66  1163.5818
65  1150.7551
64  1011.5956
63  1087.1775
62  1012.2994
61  1128.8114
60  1013.5059
59  1152.5049
58  1293.583
57  1354.4144
56  1218.5765
55  1296.0241
54  1405.2816
53  1320.4326
52  1276.3992
51  1290.0864
50  1253.3722
49  1392.3113
48  1217.7636
47  1268.1476
46  1250.4474
45  1162.2812
44  1142.3812
43  1073.5041
42  1062.4071
41  909.59205
40  939.40907
39  944.7678
38  888.03507
37  864.68618
36  983.95062
35  1076.4019
34  937.10722
33  1131.7282
32  1218.9053
31  1472.5692
30  1923.1681
29  2839.071
28  3827.1987
27  4722.4716
26  3974.333
25  2243.3331
24  1190.4316
23  619.34387
22  341.11799
21  263.31081
20  215.63234
19  253.79683
18  384.9605
17  845.4851
16  1229.1716
15  1222.0867
14  1113.4696
13  1086.1817
12  1074.3125
11  1144.3676
10  1106.406
9  1223.4347
8  1071.6019
7  525.26615
6  284.76393
5  169.28125
4  92.287935
3  74.785337
2  48.116785
1  22.210815
0  14.921775