# Region:            Survey 200s 3k 36uA H=5 (2)
# Acquisition Date:  11/07/19 21:09:09 UTC
# Analysis Method:   XPS
# Analyzer:          Phoibos
# Analyzer Lens:     MediumArea:1.5kV
# Analyzer Slit:     4:3x20\B:open
# Scan Mode:         FixedAnalyzerTransmission
# Curves/Scan:       1
# Values/Curve:      1301
# Dwell Time:        0.1
# Excitation Energy: 1486.71
# Binding Energy:    1300
# Pass Energy:       50
# Bias Voltage:      90
# Detector Voltage:  1900
# Eff. Workfunction: 4.395
# Source:            Focus
# Comment:           
#
# Cycle: 0
# Number of Scans: 2
#
# Cycle: 0, Curve: 0
# Acquisition Date: 11/07/19 21:09:09 UTC
#
# ColumnLabels: energy counts/s
#
1300  15389.116
1299  15452.961
1298  15748.931
1297  15521.276
1296  15527.543
1295  15214.955
1294  15405.836
1293  15192.766
1292  15048.559
1291  14964.651
1290  14932.311
1289  15144.851
1288  15136.639
1287  14604.487
1286  15078.76
1285  15033.081
1284  14971.573
1283  15125.15
1282  15107.4
1281  15123.212
1280  15324.671
1279  14934.5
1278  14953.28
1277  15585.127
1276  15650.824
1275  15533.2
1274  15233.724
1273  15256.589
1272  14642.78
1271  14795.787
1270  14927.048
1269  15107.677
1268  15374.717
1267  14847.81
1266  14857.56
1265  15124.475
1264  14473.439
1263  14537.432
1262  14624.463
1261  15171.412
1260  14849.402
1259  14867.453
1258  14661.86
1257  15206.046
1256  15453.029
1255  15252.149
1254  15153.065
1253  14978.238
1252  14976.158
1251  15271.511
1250  15054.986
1249  14806.049
1248  14401.351
1247  14438.335
1246  15044.103
1245  15056.966
1244  15135.769
1243  15383.907
1242  14910.604
1241  15453.622
1240  15306.098
1239  14831.581
1238  15319.218
1237  15072.862
1236  14983.407
1235  14877.457
1234  15259.708
1233  14861.458
1232  14430.901
1231  14706.243
1230  15060.335
1229  14996.299
1228  15139.08
1227  15036.299
1226  15244.622
1225  15498.893
1224  15051.427
1223  14588.82
1222  15064.777
1221  14903.884
1220  15570.508
1219  15171.373
1218  15020.753
1217  14998.115
1216  14657.401
1215  15349.844
1214  15042.895
1213  14795.965
1212  14636.908
1211  15124.512
1210  15403.117
1209  14373.614
1208  14707.04
1207  14930.267
1206  14940.134
1205  15260.22
1204  15104.349
1203  14890.485
1202  15357.285
1201  15305.43
1200  14659.092
1199  15185.65
1198  15103.754
1197  15425.367
1196  15281.435
1195  14726.96
1194  15064.903
1193  15150.11
1192  15015.142
1191  14637.479
1190  14820.754
1189  15196.561
1188  14799.809
1187  14706.489
1186  14542.144
1185  15020.471
1184  15330.892
1183  15483.59
1182  15077.178
1181  15034.667
1180  14977.197
1179  15181.022
1178  15103.708
1177  15359.194
1176  15091.605
1175  15025.208
1174  15061.099
1173  15366.183
1172  14914.615
1171  14917.243
1170  15102.03
1169  15152.689
1168  14505.837
1167  15297.308
1166  15305.401
1165  14932.63
1164  14855.174
1163  15223.43
1162  15269.383
1161  15165.203
1160  14998.724
1159  14690.957
1158  15443.482
1157  15115.093
1156  15063.138
1155  15353.833
1154  15221.705
1153  15746.647
1152  15083.378
1151  15490.742
1150  14792.232
1149  15423.781
1148  15358.394
1147  15177.769
1146  15008.247
1145  15385.95
1144  15138.787
1143  15243.61
1142  14994.186
1141  15349.905
1140  15240.337
1139  15694.63
1138  15081.003
1137  15457.001
1136  15214.192
1135  15384.448
1134  15573.809
1133  15549.028
1132  15641.505
1131  15662.295
1130  15413.782
1129  15048.967
1128  15563.051
1127  15677.228
1126  15395.607
1125  15502.947
1124  15794.567
1123  15510.785
1122  15504.453
1121  15457.256
1120  15488.544
1119  15683.982
1118  15467.04
1117  15446.905
1116  15874.55
1115  15980.349
1114  15852.677
1113  15597.95
1112  15554.834
1111  15567.445
1110  15475.016
1109  15648.396
1108  15588.494
1107  15923.608
1106  15772.685
1105  15471.112
1104  15887.438
1103  15606.288
1102  15567.642
1101  15751.471
1100  15615.793
1099  15866.721
1098  15555.947
1097  16120.537
1096  15881.681
1095  15723.95
1094  15567.081
1093  15687.905
1092  15776.299
1091  15983.155
1090  16084.745
1089  16264.377
1088  15755.678
1087  15528.153
1086  16003.482
1085  15817.691
1084  15992.147
1083  16276.014
1082  16027.506
1081  15822.923
1080  15899.514
1079  15876.502
1078  16170.16
1077  16361.163
1076  16431.937
1075  16607.12
1074  16289.886
1073  15952.133
1072  16020.712
1071  15797.087
1070  15864.602
1069  16173.359
1068  16421.679
1067  16132.494
1066  16449.703
1065  15978.673
1064  15796.04
1063  16256.269
1062  16227.121
1061  16650.663
1060  16537.499
1059  16530.487
1058  16444.149
1057  16659.924
1056  16214.734
1055  16261.497
1054  16371.044
1053  17072.729
1052  16618.775
1051  16508.544
1050  16586.646
1049  17003.112
1048  16908.807
1047  16793.325
1046  16607.873
1045  16904.776
1044  17224.055
1043  16975.728
1042  17063.974
1041  16761.43
1040  17056.594
1039  16879.991
1038  17632.172
1037  17468.952
1036  17477.83
1035  17309.399
1034  17710.452
1033  17678.245
1032  17831.81
1031  17954.47
1030  17922.738
1029  18010.139
1028  18368.746
1027  17747.228
1026  17696.822
1025  17931.401
1024  18410.76
1023  18578.5
1022  18155.821
1021  18837.143
1020  19146.551
1019  19451.292
1018  19205.964
1017  19252.906
1016  18858.075
1015  18545.673
1014  18320.408
1013  18350.785
1012  18075.083
1011  18425.263
1010  18827.403
1009  19752.182
1008  20056.808
1007  20608.713
1006  20897.142
1005  21258.119
1004  22260.941
1003  22180.916
1002  22000.247
1001  21190.741
1000  20006.853
999  19448.001
998  19074.356
997  18543.082
996  18011.079
995  17496.19
994  17152.238
993  17034.891
992  17414.063
991  17686.3
990  17860.889
989  17994.613
988  18705.803
987  20254.082
986  22448.338
985  24182.286
984  26475.284
983  28850.159
982  29649.61
981  29879.664
980  26565.147
979  23240.904
978  20441.025
977  18373.003
976  16291.444
975  15296.622
974  14124.981
973  13210.725
972  12447.823
971  11125.956
970  10461.827
969  9953.5348
968  9309.8557
967  8857.8971
966  8813.9588
965  8966.5476
964  8967.221
963  9148.0582
962  8887.6509
961  8801.3991
960  8934.7988
959  8843.2685
958  8828.1792
957  8896.4098
956  9196.1593
955  8831.6642
954  9201.878
953  8740.834
952  8964.9541
951  9180.6748
950  9051.9025
949  8968.1181
948  8371.6356
947  8332.3554
946  8914.8059
945  9215.6816
944  9181.656
943  9252.2878
942  9180.1361
941  9555.3741
940  8963.153
939  9433.4888
938  9091.4122
937  9203.0202
936  9202.8241
935  9265.8488
934  9113.7701
933  9209.7931
932  9192.2352
931  9114.8977
930  9460.9044
929  9151.1262
928  9489.3871
927  9098.6866
926  9472.574
925  9189.8179
924  9224.6249
923  9593.966
922  8960.2812
921  9485.293
920  9389.3544
919  9210.9436
918  9246.3394
917  9287.5917
916  9455.9266
915  9476.1189
914  9583.597
913  9435.8041
912  9578.6306
911  9556.5845
910  9708.4299
909  9783.0165
908  9656.7404
907  9584.7177
906  9775.7349
905  9594.6777
904  9821.9385
903  9994.8215
902  9971.8452
901  9697.8283
900  10006.603
899  9917.9206
898  10169.803
897  9872.044
896  10035.607
895  10114.981
894  9907.4095
893  9801.4255
892  9670.6082
891  9945.2968
890  9767.317
889  9973.4499
888  9819.4473
887  10069.446
886  9872.4751
885  9914.0429
884  10269.552
883  10283.081
882  10400.365
881  10387.485
880  10009.011
879  10101.134
878  10223.241
877  10124.333
876  10375.392
875  10271.954
874  10435.202
873  10330.693
872  10641.91
871  10742.435
870  10627.999
869  10284.319
868  10154.088
867  10294.752
866  10548.846
865  10791.071
864  10743.588
863  10163.314
862  10459.061
861  10634.359
860  10830.991
859  10635.743
858  10386.92
857  10857.667
856  10804.622
855  10834.302
854  10758.88
853  10892.199
852  10864.448
851  10832.037
850  11226.708
849  11310.856
848  10860.442
847  11077.713
846  11312.198
845  11083.985
844  11071.526
843  11442.124
842  11172.747
841  11196.855
840  11197.975
839  11073.326
838  11252.549
837  11782.69
836  11118.921
835  11050.075
834  10936.977
833  11373.399
832  11346.439
831  11530.806
830  11199.874
829  11152.448
828  11272.71
827  11349.442
826  11582.219
825  11431.89
824  11633.224
823  11797.371
822  11698.641
821  11474.607
820  11441.357
819  11201.436
818  11471.032
817  11604.503
816  11857.234
815  11915.335
814  11667.02
813  11736.986
812  12141.481
811  12047.559
810  12324.292
809  12218.288
808  11770.6
807  11924.468
806  12073.932
805  11945.672
804  11684.543
803  12015.558
802  12108.413
801  12589.916
800  12148.34
799  12275.003
798  11965.374
797  12390.255
796  12037.969
795  12570.812
794  12637.259
793  12411.073
792  12157.135
791  12389.952
790  12245.177
789  12220.855
788  12406.291
787  12260.646
786  12824.87
785  12774.939
784  12839.693
783  12561.261
782  12295.116
781  12346.392
780  12758.214
779  12765.27
778  12698.768
777  13109.675
776  12513.93
775  12514.713
774  12930.912
773  12746.077
772  12747.158
771  12952.76
770  12931.862
769  12949.905
768  12749.299
767  12761.675
766  12749.919
765  13367.501
764  13063.309
763  12762.439
762  13115.725
761  13208.816
760  13217.607
759  13135.882
758  12977.766
757  13167.766
756  12947.795
755  13347.594
754  13033.984
753  12807.31
752  12912.916
751  12983.255
750  13199.454
749  13093.747
748  13251.759
747  13650.914
746  13326.486
745  13170.972
744  13689.758
743  13375.249
742  13426.618
741  13833.15
740  14088.288
739  13515.36
738  13490.051
737  13692.252
736  13494.56
735  13672.883
734  14003.185
733  13978.336
732  14264.764
731  13849.825
730  13729.791
729  13594.486
728  13714.636
727  13682.02
726  13691.675
725  13938.796
724  14135.952
723  14037.233
722  13979.512
721  14146.977
720  14030.463
719  14046.077
718  13838.592
717  14094.677
716  14621.852
715  14615.359
714  14485.294
713  14586.022
712  14089.054
711  14471.61
710  14268.776
709  14579.985
708  14473.651
707  14124.315
706  14192.658
705  14156.754
704  14328.045
703  14788.205
702  14500.201
701  14672.038
700  15051.491
699  14576.515
698  14642.854
697  14164.826
696  14620.007
695  14725.036
694  15030.068
693  14990.06
692  14780.204
691  14767.69
690  14729.273
689  15082.629
688  15122.838
687  15021.7
686  15303.066
685  15242.126
684  15404.693
683  15443.739
682  15471.845
681  15292.983
680  14746.979
679  15669.747
678  15820.802
677  15626.274
676  15230.34
675  15388.974
674  15447.213
673  15827.337
672  15716.418
671  15698.27
670  15755.005
669  15786.594
668  15395.61
667  16382.784
666  15831.18
665  15913.273
664  15765.932
663  16053.169
662  16121.963
661  16095.855
660  15976.323
659  16011.275
658  16033.812
657  16042.498
656  15945.91
655  15930.593
654  16019.046
653  16149.398
652  15738.103
651  15733.394
650  16076.897
649  16367.792
648  16601.8
647  16355.179
646  16622.918
645  16425.93
644  16896.816
643  16461.206
642  16367.374
641  16384.63
640  16338.473
639  16556.313
638  16643.746
637  16521.462
636  16929.529
635  16884.502
634  16863.981
633  16927.045
632  17016.001
631  16815.027
630  17140.735
629  17137.124
628  17620.756
627  17082.112
626  17017.101
625  17139.992
624  17345.182
623  17520
622  17621.941
621  17298.223
620  17567.854
619  17325.67
618  17233.021
617  17585.073
616  17210.905
615  17600.336
614  17329.503
613  17354.131
612  17741.529
611  17412.285
610  17311.729
609  17965.181
608  17974.585
607  17871.406
606  17867.594
605  18191.917
604  17824
603  17313.684
602  18153.162
601  17904.563
600  18152.605
599  17964.951
598  18397.099
597  17935.03
596  18097.589
595  18525.985
594  18135.456
593  18467.827
592  18703.983
591  18649.146
590  18853.079
589  18922.187
588  18709.419
587  19563.407
586  19168.735
585  19055.595
584  19084.839
583  18820.889
582  19188.508
581  19615.4
580  19262.085
579  19220.513
578  18961.116
577  18834.855
576  18295.89
575  18552.375
574  18789.54
573  18785.954
572  18441.447
571  17942.766
570  17745.734
569  17916.604
568  17775.662
567  17662.3
566  18281.188
565  18846.602
564  19855.722
563  19975.071
562  20777.258
561  22054.567
560  22804.568
559  23269.439
558  23384.204
557  23554.926
556  23215.875
555  21488.411
554  19976.019
553  18712.435
552  17639.887
551  16793.344
550  15760.068
549  15136.298
548  14158.457
547  13465.469
546  12544.427
545  11669.429
544  10406.715
543  9652.9408
542  8940.519
541  8840.5188
540  8388.6714
539  8667.1243
538  10500.386
537  18523.902
536  48656.897
535  113709.43
534  123362.68
533  49446.443
532  13904.565
531  8355.9552
530  7128.6628
529  6753.1357
528  6665.8355
527  6678.1097
526  6433.2987
525  6114.102
524  6202.6886
523  6478.2982
522  6394.9907
521  6361.8483
520  6321.7668
519  6254.2002
518  6247.4089
517  6218.4103
516  6171.0309
515  6057.8733
514  6170.0827
513  6155.4644
512  6310.3606
511  6211.736
510  6051.2148
509  6000.0683
508  5882.4952
507  6020.7851
506  6273.8135
505  6011.679
504  6265.2625
503  6317.5621
502  6315.982
501  6134.2367
500  6207.0351
499  6243.8896
498  6681.273
497  6324.2977
496  6307.8803
495  6398.0576
494  6215.266
493  6205.7937
492  6185.1956
491  6201.0952
490  6479.6217
489  6361.2966
488  6857.4664
487  6498.1647
486  6346.9327
485  6150.6559
484  6365.1245
483  6277.183
482  6271.4939
481  6366.9232
480  6287.7903
479  6284.702
478  6190.8412
477  6566.972
476  6496.0916
475  6121.1789
474  6474.1848
473  6480.8972
472  6258.0036
471  6494.5389
470  6016.64
469  6414.4506
468  6624.5903
467  6420.8565
466  6309.529
465  6350.2036
464  6427.3376
463  6415.0121
462  6445.6699
461  6768.7936
460  6453.066
459  6482.7889
458  6375.6299
457  6532.8519
456  6476.2369
455  6170.4733
454  6309.3386
453  6359.986
452  6627.0205
451  6470.5577
450  6366.2729
449  6504.9337
448  6812.0028
447  6403.711
446  6650.6444
445  6666.3758
444  6489.4961
443  6515.2068
442  6734.5749
441  6821.1331
440  6451.0634
439  6387.0743
438  6677.1839
437  6300.2311
436  6665.5376
435  6621.2337
434  6423.7108
433  6444.2886
432  6387.2498
431  6517.5969
430  6552.9676
429  6639.1309
428  6514.8902
427  6711.0544
426  6805.2305
425  6596.5135
424  6957.5713
423  6985.2249
422  6585.4588
421  6639.2502
420  6614.9108
419  6499.8795
418  6477.7701
417  6490.1704
416  6464.227
415  6952.6894
414  6804.2647
413  6802.1647
412  6749.8633
411  6370.824
410  6550.3773
409  6828.9191
408  6761.5174
407  6696.4624
406  6754.7568
405  6867.3613
404  6902.6037
403  7118.2638
402  6933.6032
401  7131.4875
400  7474.9503
399  7280.5879
398  7044.9937
397  6947.9263
396  6801.7389
395  6752.604
394  6389.1446
393  6628.8318
392  6516.7606
391  6669.785
390  6777.2002
389  6748.811
388  6581.2332
387  6480.6867
386  6548.5594
385  6789.9578
384  6883.9081
383  6760.9604
382  6704.4171
381  7182.7773
380  7206.7647
379  6744.592
378  6677.7646
377  6934.1161
376  7213.6155
375  7015.5797
374  6974.403
373  6685.6089
372  6672.9481
371  6582.39
370  6785.504
369  6728.3991
368  6663.1307
367  6489.7594
366  6564.554
365  6658.5521
364  6482.2588
363  6809.1017
362  6971.3136
361  6911.9286
360  6649.2488
359  6969.7813
358  7001.9363
357  6674.2579
356  6766.0422
355  6995.0412
354  7220.105
353  6995.0168
352  7068.4103
351  7067.7265
350  7073.8982
349  6974.6965
348  6952.1702
347  6735.1087
346  6746.0649
345  7023.3945
344  7165.7965
343  6953.8257
342  6725.3199
341  6861.3095
340  6810.8789
339  6845.9205
338  6943.6759
337  6818.2365
336  6650.8829
335  6710.6017
334  6811.8997
333  6595.2562
332  6593.556
331  6681.3807
330  6501.7413
329  6673.8574
328  6439.9505
327  6821.1725
326  6816.84
325  6528.5304
324  6888.1451
323  7116.2254
322  7198.0551
321  7223.0796
320  7487.531
319  6894.1849
318  6815.9491
317  6916.664
316  7011.2214
315  6679.6798
314  6584.106
313  6763.7895
312  6801.6796
311  6570.8523
310  6653.636
309  6908.301
308  7101.5491
307  7085.9279
306  6875.2121
305  6494.6202
304  6504.4773
303  6451.3845
302  6641.1779
301  6693.258
300  6618.8948
299  6709.544
298  6647.3312
297  6688.6086
296  6751.1251
295  6789.742
294  6841.2341
293  6866.7849
292  6626.1279
291  6819.1883
290  6449.2566
289  6622.394
288  6713.2408
287  7112.4144
286  6931.8727
285  6509.1803
284  6685.5231
283  6375.1589
282  6577.8186
281  6692.0643
280  6775.6247
279  6608.542
278  6620.9706
277  6463.6925
276  6526.1537
275  6587.3031
274  6241.1619
273  6415.7644
272  6557.0938
271  6627.7774
270  6604.5156
269  6616.6562
268  6619.6266
267  6425.1238
266  6732.7223
265  6523.2554
264  6745.7608
263  6816.9719
262  6665.0012
261  6716.7119
260  6422.3684
259  6438.5886
258  6358.8748
257  6499.3556
256  6969.6399
255  6462.182
254  6495.3523
253  6302.3505
252  6421.4652
251  6412.6518
250  6228.0914
249  6182.4264
248  6335.2783
247  6658.5759
246  7374.7017
245  7604.9358
244  8054.87
243  7693.7947
242  7011.8232
241  6601.3483
240  6386.2638
239  6193.8994
238  6590.1051
237  6532.2576
236  6233.9894
235  6059.9016
234  6306.161
233  6679.5618
232  6198.2543
231  6211.7719
230  6319.2488
229  6178.3258
228  6445.2446
227  6227.5806
226  6167.2935
225  6152.3601
224  6487.7148
223  6482.4475
222  6373.1309
221  6321.0035
220  6447.0448
219  6083.7907
218  6021.2156
217  5903.0106
216  6219.4127
215  6295.5052
214  6366.4181
213  5905.0275
212  6358.3702
211  6067.8085
210  6183.7211
209  6192.3151
208  6334.6042
207  5975.775
206  6314.1973
205  6128.8426
204  5987.1458
203  6309.1543
202  5909.9778
201  6230.2374
200  6558.6777
199  6548.7244
198  6577.211
197  6372.9348
196  6504.7741
195  6385.8173
194  6654.4743
193  6718.5623
192  6387.5597
191  6183.0449
190  6483.9432
189  6464.46
188  6565.5416
187  6558.1365
186  6410.1547
185  6608.2728
184  6807.5769
183  6886.9736
182  7161.5381
181  7185.4612
180  7253.8681
179  7347.422
178  7383.0425
177  7207.8005
176  6995.2925
175  6857.8571
174  7026.72
173  6757.5685
172  6549.0113
171  6302.4503
170  6130.0482
169  5841.5032
168  5846.1749
167  5520.1258
166  5017.7634
165  4895.1047
164  4695.3378
163  4760.5782
162  4629.7554
161  5048.1294
160  5774.2017
159  7656.432
158  12537.45
157  21839.003
156  27549.283
155  21455.654
154  11887.273
153  7489.595
152  5695.273
151  5078.9122
150  4738.2782
149  4372.0501
148  4148.0573
147  4105.7796
146  4038.3571
145  3920.302
144  3762.598
143  3777.7973
142  3698.8637
141  3599.5079
140  3665.1131
139  3787.6917
138  3568.3043
137  3540.03
136  3545.3161
135  3636.7748
134  3575.5772
133  3825.0841
132  4107.594
131  4344.4145
130  4438.6344
129  4223.176
128  4560.9306
127  4579.1953
126  4503.6019
125  4401.8595
124  4115.6861
123  3951.6401
122  3886.823
121  3330.3836
120  3387.545
119  2934.7534
118  2569.8318
117  2716.8161
116  2256.7221
115  2108.0627
114  1774.2211
113  1727.2547
112  1646.8874
111  1668.2391
110  1621.3711
109  1739.8817
108  2776.3451
107  7153.2542
106  20368.981
105  30204.404
104  19636.233
103  6333.1807
102  2115.4394
101  1433.6643
100  1553.5211
99  1198.5047
98  926.37082
97  1073.7713
96  1084.1627
95  1085.0072
94  1154.4522
93  1032.3341
92  1085.848
91  971.05487
90  993.87459
89  964.22301
88  1133.8563
87  1186.0769
86  978.64167
85  1040.7106
84  1020.8153
83  1083.0902
82  1172.8309
81  1127.6081
80  1017.0334
79  1029.3545
78  963.17435
77  1067.6372
76  1140.6501
75  1215.4146
74  1080.7127
73  979.70684
72  1076.2979
71  1049.2992
70  1131.9115
69  1155.601
68  1022.7371
67  1141.3792
66  1220.4171
65  1142.5009
64  1134.7751
63  1077.466
62  1132.1755
61  1212.9196
60  1154.0855
59  1202.6676
58  1304.5876
57  1247.7265
56  1312.9731
55  1268.9302
54  1308.075
53  1247.7718
52  1309.1757
51  1370.6341
50  1346.9045
49  1360.3496
48  1234.8433
47  1260.0622
46  1112.5877
45  1127.6532
44  1098.2273
43  1102.2771
42  1034.8055
41  1155.8842
40  1079.6913
39  1057.7754
38  951.42715
37  855.92024
36  961.44063
35  1031.7561
34  1130.8163
33  1143.7137
32  1212.7842
31  1419.4899
30  1971.474
29  2974.467
28  4159.6705
27  4675.2007
26  4062.5457
25  2096.8448
24  993.60917
23  480.30955
22  320.07215
21  275.53606
20  160.71183
19  202.84426
18  450.19909
17  796.31809
16  1185.8726
15  1260.2286
14  1129.6529
13  1040.539
12  1071.7889
11  1122.5255
10  1248.3607
9  1085.6447
8  853.36125
7  471.20816
6  170.10735
5  119.73897
4  94.5746
3  56.054124
2  20.70495
1  14.63645
0  19.149475