# Group:             Spectrum Group (2)
#
# Region:             Survey 20 s 1k 28uA
# Acquisition Date:  11/07/19 16:55:57 UTC
# Analysis Method:   XPS
# Analyzer:          Phoibos
# Analyzer Lens:     MediumArea:1.5kV
# Analyzer Slit:     4:3x20\B:open
# Scan Mode:         FixedAnalyzerTransmission
# Curves/Scan:       1
# Values/Curve:      1301
# Dwell Time:        0.1
# Excitation Energy: 1486.71
# Binding Energy:    1300
# Pass Energy:       50
# Bias Voltage:      90
# Detector Voltage:  1900
# Eff. Workfunction: 4.395
# Source:            Focus
# Comment:           
#
# Cycle: 0
# Number of Scans: 2
#
# Cycle: 0, Curve: 0
# Acquisition Date: 11/07/19 16:55:57 UTC
#
# ColumnLabels: energy counts/s
#
1300  16303.758
1299  16264.316
1298  16538.26
1297  16488.511
1296  16141.118
1295  16259.301
1294  16482.124
1293  16028.979
1292  16923.226
1291  16150.503
1290  16577.012
1289  16338.513
1288  16104.225
1287  16567.321
1286  16249.075
1285  16428.668
1284  16022.91
1283  16313.736
1282  16808.453
1281  16246.749
1280  16035.978
1279  16905.587
1278  16985.061
1277  16937.525
1276  16951.73
1275  17134.807
1274  16480.17
1273  17119.221
1272  16892.954
1271  16721.481
1270  16413.531
1269  16402.564
1268  16613.628
1267  16532.648
1266  16843.206
1265  17069.003
1264  17016.773
1263  17235.088
1262  16885.753
1261  17371.759
1260  16746.506
1259  16967.608
1258  17184.492
1257  17111.118
1256  17145.123
1255  17585.903
1254  17535.895
1253  17626.188
1252  17701.581
1251  17445.904
1250  17581.906
1249  17802.948
1248  17976.165
1247  17697.974
1246  17987.301
1245  17842.557
1244  17831.879
1243  17793.586
1242  17769.303
1241  18051.427
1240  17977.075
1239  18212.575
1238  17493.012
1237  18136.967
1236  18002.265
1235  18032.229
1234  18013.677
1233  18013.486
1232  18209.216
1231  18572.573
1230  18933.223
1229  19106.886
1228  19956.077
1227  19407.547
1226  18972.846
1225  19122.516
1224  18439.202
1223  17981.259
1222  18014.389
1221  17559.079
1220  17099.837
1219  16986.349
1218  16643.692
1217  16245.214
1216  15853.599
1215  15491.761
1214  15786.081
1213  15241.813
1212  15500.323
1211  15184.191
1210  15573.434
1209  15358.137
1208  15155.907
1207  15215.344
1206  15547.157
1205  15354.718
1204  15697.054
1203  15232.448
1202  15260.53
1201  15302.786
1200  15223.959
1199  15074.803
1198  15238.439
1197  15593.776
1196  15321.585
1195  15264.881
1194  15245.491
1193  15164.106
1192  15276.992
1191  15579.354
1190  15139.084
1189  14973.975
1188  15132.565
1187  15412.663
1186  15242.391
1185  15511.291
1184  15465.921
1183  15405.791
1182  15067.249
1181  15281.494
1180  15478.902
1179  15484.587
1178  15364.045
1177  14905.352
1176  15296.474
1175  15736.061
1174  15699.198
1173  15618.029
1172  15205.809
1171  15633.362
1170  15505.157
1169  15102.672
1168  15955.746
1167  15277.628
1166  15523.808
1165  15174.727
1164  15691.745
1163  15807.821
1162  15722.346
1161  15270.479
1160  15268.984
1159  14748.86
1158  14646.52
1157  15069.665
1156  14858.288
1155  15486.15
1154  15825.018
1153  15538.783
1152  15758.504
1151  15922.412
1150  15537.127
1149  15385.548
1148  15526.052
1147  15161.541
1146  15823.382
1145  16189.056
1144  16181.62
1143  15909.171
1142  16131.951
1141  15560.486
1140  15801.33
1139  15325.127
1138  16065.471
1137  15677.464
1136  15905.06
1135  15665.053
1134  15438.757
1133  15994.27
1132  15702.415
1131  15364.094
1130  15321.305
1129  15689.695
1128  15798.018
1127  15718.652
1126  15587.059
1125  16037.97
1124  16044.187
1123  15590.145
1122  15836.817
1121  15818.326
1120  15691.919
1119  15626.872
1118  15780.709
1117  16193.735
1116  15464.274
1115  15964.232
1114  16255.011
1113  15739.073
1112  16118.181
1111  15831.743
1110  15842.385
1109  15875.218
1108  15660.854
1107  15936.59
1106  15475.216
1105  16173.096
1104  16136.67
1103  16277.019
1102  16185.133
1101  16378.19
1100  16008.657
1099  15631.965
1098  16511.324
1097  15760.56
1096  15892.54
1095  16150.169
1094  16145.904
1093  16221.964
1092  15891.824
1091  15758.472
1090  15825.67
1089  16230.584
1088  16124.798
1087  15900.611
1086  15676.996
1085  16008.144
1084  16015.275
1083  15891.138
1082  16059.144
1081  16081.846
1080  15986.514
1079  16108.66
1078  16233.422
1077  16305.281
1076  16608.64
1075  15959.458
1074  16719.754
1073  17936.036
1072  17388.258
1071  16360.466
1070  15884.407
1069  16192.602
1068  16268.254
1067  15980.051
1066  15774.329
1065  16290.092
1064  16373.945
1063  16039.909
1062  16304.701
1061  16253.683
1060  16065.656
1059  16307.698
1058  16149.697
1057  16036.868
1056  16040.705
1055  16168.207
1054  16294.342
1053  16670.91
1052  16317.243
1051  16517.185
1050  16460.853
1049  17227.645
1048  16699.585
1047  16090.314
1046  16183.245
1045  16635.409
1044  16272.613
1043  15878.639
1042  16122.97
1041  16612.458
1040  16410.762
1039  15891.347
1038  16426.154
1037  16753.751
1036  16429.686
1035  16165.621
1034  16416.053
1033  15954.887
1032  16258.501
1031  16696.413
1030  16445.384
1029  16031.69
1028  16381.984
1027  16004.111
1026  16277.208
1025  16885.871
1024  16688.127
1023  16544.342
1022  16673.097
1021  17150.76
1020  16849.056
1019  16822.993
1018  17278.575
1017  16644.083
1016  16704.072
1015  16555.162
1014  16298.797
1013  15645.616
1012  15572.352
1011  16018.954
1010  16113.854
1009  16193.011
1008  16583.883
1007  16231.882
1006  16543.649
1005  16443.57
1004  16594.364
1003  17103.23
1002  17641.194
1001  16825.638
1000  17019.095
999  16478.5
998  15781.304
997  15436.042
996  15579.599
995  14838.315
994  14423.69
993  14156.628
992  13906.295
991  13770.19
990  13703.411
989  13885.681
988  13920.762
987  13619.335
986  13919.784
985  14759.243
984  15982.6
983  16567.27
982  16994.198
981  18447.773
980  19089.859
979  17390.464
978  15521.47
977  14611.039
976  13758.519
975  13010.098
974  12055.272
973  11815.323
972  11442.426
971  11025.437
970  10459.148
969  9959.3041
968  9573.2562
967  9327.9191
966  9195.51
965  9554.3301
964  9129.7846
963  9828.561
962  9579.4392
961  9336.9379
960  9459.1623
959  9269.7336
958  9636.4881
957  9493.5974
956  9558.1652
955  9520.5333
954  9565.7814
953  9163.9894
952  9467.266
951  9139.9051
950  9454.147
949  9612.4556
948  9706.2602
947  9529.3945
946  9390.0364
945  9515.0173
944  9868.6231
943  9503.8837
942  9899.0645
941  9404.0637
940  9516.7078
939  9653.7706
938  9538.6639
937  9799.2422
936  10393.874
935  9896.4665
934  9616.3392
933  9806.9361
932  9886.6404
931  9897.4823
930  10097.671
929  10054.769
928  9717.4631
927  9915.1458
926  9980.8545
925  9815.4318
924  9858.9418
923  10019.456
922  9922.442
921  9981.428
920  10201.78
919  10841.614
918  10426.373
917  10427.164
916  10374.188
915  10258.433
914  9979.0329
913  10486.571
912  10456.52
911  10320.282
910  10094.511
909  10487.203
908  10269.241
907  10660.951
906  10915.089
905  10486.217
904  10214.101
903  10267.018
902  10257.475
901  10618.75
900  10525.386
899  10375.836
898  10737.499
897  10827.947
896  10639.691
895  10920.654
894  10599.111
893  10699.553
892  10518.302
891  10399.625
890  10294.781
889  10950.698
888  11086.584
887  10902.89
886  10777.864
885  10677.486
884  10534.183
883  11015.532
882  11145.847
881  10859.135
880  10953.096
879  11066.072
878  10603.666
877  10736.483
876  10799.12
875  10595.026
874  11062.516
873  11129.414
872  11027.97
871  11086.68
870  11157.044
869  10673.168
868  11254.841
867  11204.691
866  11392.849
865  11491.966
864  11136.156
863  10977.988
862  11088.044
861  10981.24
860  11186.602
859  11096.427
858  11168.578
857  11734.539
856  11509.806
855  11508.407
854  11701.373
853  11163.534
852  11360.831
851  11498.165
850  11935.689
849  11648.032
848  11650.612
847  11653.718
846  11591.702
845  11928.531
844  11557.769
843  11599.176
842  11692.672
841  12126.062
840  11998.815
839  11439.263
838  11850.827
837  12042.568
836  12016.68
835  12006.997
834  12276.687
833  11912.991
832  11963.046
831  12162.517
830  12002.836
829  12229.096
828  11783.044
827  12159.221
826  12001.359
825  11978.176
824  11962.116
823  11622.393
822  11833.048
821  12138.918
820  12245.521
819  12407.007
818  12679.025
817  12611.399
816  12504.873
815  12115.375
814  12391.231
813  12740.142
812  12438.896
811  12555.686
810  12840.06
809  12506.861
808  12542.184
807  12596.497
806  12482.658
805  12567.056
804  12456.966
803  12433.689
802  12601.963
801  12333.683
800  12536.064
799  12419.638
798  12759.337
797  12923.985
796  12623.163
795  12324.816
794  12318.096
793  12384.741
792  12757.596
791  12967.837
790  12845.387
789  13147.207
788  12873.781
787  13291.417
786  13132.101
785  12753.728
784  13170.236
783  12640.468
782  13139.182
781  13074.637
780  13283.802
779  13476.912
778  13207.337
777  13518.339
776  13395.683
775  13460.177
774  13701.755
773  13329.682
772  13298.591
771  13552.843
770  12651.759
769  13077.279
768  13408.198
767  13384.606
766  13357.658
765  13576.596
764  13626.545
763  13339.732
762  13359.207
761  14082.508
760  13724.094
759  14073.373
758  13613.138
757  13909.174
756  14045.203
755  13555.573
754  13488.573
753  13619.441
752  13703.906
751  13487.476
750  13689.595
749  13820.249
748  14027.82
747  13858.264
746  13972.219
745  13884.69
744  13859.265
743  13656.327
742  13695.258
741  13894.438
740  13910.907
739  14214.218
738  13903.366
737  14016.37
736  14386.883
735  14483.687
734  13980.676
733  14316.715
732  14163.474
731  14192.414
730  13931.318
729  14269.232
728  14149.636
727  14027.019
726  14152.013
725  14314.123
724  14314.463
723  14620.666
722  14511.235
721  14976.618
720  14770.974
719  14442.315
718  14119.94
717  14937.834
716  14913.748
715  14527.078
714  14743.525
713  14694.952
712  14976.01
711  14710.607
710  15182.207
709  14755.133
708  14623.659
707  14624.392
706  14470.502
705  14990.903
704  15279.669
703  14577.316
702  14830.408
701  14720.377
700  14735.077
699  14788.117
698  15281.811
697  14838.469
696  14929.943
695  15168.689
694  15287.278
693  15197.08
692  14764.275
691  15302.359
690  15022.495
689  15190.379
688  15178.816
687  14855.073
686  15194.317
685  15274.405
684  15299.917
683  15677.766
682  15642.144
681  16153.963
680  15638.291
679  15729.693
678  15694.161
677  15596.494
676  15407.037
675  15107.111
674  15310.313
673  15878.907
672  15681.558
671  15418.852
670  15494.133
669  16039.668
668  15739.024
667  15482.876
666  15737.071
665  15701.594
664  15841.986
663  16026.295
662  16094.856
661  15885.611
660  15518.321
659  15704.652
658  16285.165
657  15946.66
656  16070.861
655  16227.729
654  16322.566
653  16454.485
652  16122.965
651  16271.946
650  16072.988
649  16294.542
648  16418.912
647  16026.583
646  16113.184
645  16113.95
644  16468.424
643  16135.048
642  16452.159
641  16515.629
640  16551.225
639  16525.06
638  16140.111
637  16476.401
636  16590.138
635  16325.055
634  16507.317
633  16823.97
632  16577.216
631  16710.989
630  16439.489
629  16167.175
628  16396.816
627  17020.558
626  16667.588
625  16853.616
624  16376.641
623  16293.262
622  16383.835
621  16898.971
620  17279.695
619  16726.848
618  17104.881
617  16651.045
616  16651.63
615  17102.808
614  16905.928
613  16817.362
612  17110.422
611  17203.783
610  17086.562
609  16837.403
608  16817.973
607  17098.069
606  17217.41
605  17643.1
604  16813.287
603  16853.071
602  16582.55
601  17214.24
600  16921.762
599  16742.732
598  17181.615
597  17294.077
596  16644.589
595  17362.649
594  16993.591
593  17086.589
592  17200.142
591  17271.197
590  17553.602
589  17009.73
588  17134.526
587  17352.161
586  17191.836
585  17519.231
584  17577.268
583  17365.989
582  17244.224
581  17350.778
580  17234.335
579  17675.481
578  17407.985
577  17228.837
576  17312.58
575  17018.694
574  16736.671
573  16607.657
572  16729.072
571  16454.525
570  16250.601
569  15927.668
568  15768.126
567  15523.561
566  15464.031
565  15891.001
564  16073.265
563  16233.639
562  17128.127
561  17873.862
560  18080.593
559  18567.65
558  18956.012
557  19347.843
556  20080.78
555  19641.037
554  18802.491
553  17663.697
552  16725.553
551  16065.232
550  15452.338
549  15082.368
548  14032.853
547  13299.172
546  12272.121
545  11528.106
544  10013.244
543  8642.1928
542  7484.5825
541  6788.4819
540  6814.9684
539  7056.4351
538  7325.2536
537  8100.4502
536  9880.2856
535  22753.432
534  75892.009
533  82772.78
532  27489.876
531  9794.5109
530  6822.7727
529  6345.2435
528  5949.008
527  5674.4293
526  5852.3286
525  6036.31
524  5814.9199
523  5817.2496
522  5610.6598
521  5796.5398
520  5849.0742
519  5604.6389
518  5605.3536
517  5717.8094
516  5568.7542
515  5586.4086
514  5651.5679
513  5913.9243
512  5509.39
511  5436.7219
510  5534.7431
509  5504.1788
508  5668.7695
507  5653.8382
506  5678.4315
505  5628.1509
504  5589.6885
503  5744.6199
502  5685.185
501  5797.6917
500  6048.7134
499  6264.2003
498  6597.8921
497  6211.5559
496  5800.1383
495  5642.3623
494  5475.0334
493  5438.2432
492  5405.2247
491  5456.0927
490  5628.0414
489  5514.8244
488  5615.1927
487  5836.7371
486  5633.2836
485  5766.9222
484  5573.8821
483  5585.343
482  5370.2624
481  5625.159
480  5448.6963
479  5924.5635
478  5750.5836
477  5695.6636
476  5749.0155
475  5393.5082
474  5367.4501
473  5543.4815
472  5901.2269
471  5917.2985
470  5683.7922
469  5481.3277
468  5467.0067
467  5644.1409
466  5646.6961
465  5591.2588
464  5796.353
463  5880.8498
462  5918.2531
461  5701.9824
460  5515.4587
459  5664.5017
458  5856.61
457  5572.4948
456  5457.1748
455  5675.0831
454  5686.2301
453  5737.0276
452  5612.1616
451  5755.1477
450  5597.3857
449  5735.6447
448  5839.1488
447  5832.6198
446  5630.3464
445  5671.1798
444  5743.0417
443  5510.7624
442  5642.803
441  5848.3565
440  5911.2082
439  6032.9225
438  5835.1352
437  5408.7172
436  5410.3052
435  5605.7306
434  5517.0963
433  5519.1585
432  5654.6078
431  5825.9357
430  5596.2223
429  5634.4211
428  5864.6211
427  5713.9349
426  5713.5483
425  5878.1537
424  5777.8617
423  5830.7664
422  5847.8331
421  5806.8839
420  5837.4392
419  5754.9812
418  5812.4939
417  5812.6013
416  5804.9655
415  5916.3462
414  5750.7465
413  5792.3654
412  5808.9094
411  5463.5137
410  5682.8799
409  5772.7105
408  5846.5451
407  5947.1227
406  5958.5431
405  5911.3133
404  5967.1727
403  6092.1665
402  5926.9011
401  6457.4485
400  6135.3676
399  5773.9603
398  5655.1133
397  5707.8415
396  5999.3327
395  5541.7993
394  5579.5697
393  5912.7495
392  5658.3396
391  5973.1222
390  6322.7472
389  6030.2112
388  6015.34
387  5806.295
386  5845.7318
385  6091.9333
384  6045.9041
383  6025.1604
382  5893.6578
381  5897.1717
380  5838.298
379  6196.2089
378  6252.1777
377  6098.1728
376  6122.2036
375  6028.0506
374  6111.4965
373  6127.7273
372  5819.9726
371  5772.5326
370  6191.9356
369  6437.1414
368  5712.6031
367  5949.6227
366  6170.4974
365  5921.5464
364  6138.3403
363  6153.3798
362  6178.9101
361  6096.3323
360  6218.9989
359  6018.2658
358  6024.4902
357  5947.441
356  6056.6396
355  6231.0729
354  6632.0977
353  6293.8141
352  6643.5303
351  6332.8316
350  6106.1348
349  6685.841
348  6833.5559
347  6397.785
346  6234.5238
345  6221.9796
344  6352.5167
343  6448.6282
342  6415.5632
341  6188.8471
340  6278.9804
339  6165.0094
338  6226.6428
337  6299.4816
336  6535.7416
335  6618.8809
334  6472.307
333  6350.2619
332  6374.3936
331  6690.4803
330  6721.6416
329  6659.9612
328  6505.5917
327  6407.1078
326  6388.9208
325  6685.3657
324  6880.4991
323  6642.2803
322  6744.1824
321  6880.5394
320  6598.3092
319  6651.9571
318  6771.1589
317  7023.6695
316  6929.7214
315  7051.3721
314  6948.6545
313  6680.7426
312  6646.8384
311  6807.7821
310  6899.879
309  7090.9948
308  7255.514
307  7465.8998
306  7184.7106
305  7021.2341
304  7200.9042
303  7108.0357
302  6912.5648
301  6687.0826
300  6543.5149
299  6774.6227
298  6456.5439
297  6434.2824
296  6395.0487
295  5946.9695
294  6120.8228
293  5997.4106
292  6268.3027
291  5798.7864
290  6437.274
289  7046.0846
288  7683.9051
287  10756.559
286  21626.81
285  25222.329
284  9804.6957
283  6066.2241
282  5693.4719
281  5560.4422
280  5343.2701
279  5618.7133
278  5422.7591
277  5556.7675
276  5428.9892
275  5580.5091
274  5544.3602
273  5410.1607
272  5336.5874
271  5451.4942
270  5671.6096
269  5641.3608
268  5251.0207
267  5328.123
266  5751.9781
265  5509.3765
264  5795.8361
263  5711.6181
262  5457.2325
261  5619.899
260  5549.7889
259  5673.2304
258  5439.8649
257  5621.8462
256  5546.0073
255  5412.1467
254  5608.1338
253  5627.4244
252  5565.3509
251  5453.6922
250  5409.8713
249  5620.4296
248  5629.8776
247  5462.2763
246  5494.1205
245  5245.2016
244  5089.4051
243  5778.714
242  5527.4179
241  5393.881
240  5401.3054
239  5672.4913
238  5640.2167
237  5472.0276
236  5466.1823
235  5555.8109
234  5825.1867
233  5610.6975
232  5766.0009
231  5646.6197
230  5466.7495
229  5983.9273
228  5886.1021
227  5524.2694
226  5391.3073
225  5529.203
224  5545.1146
223  5666.0978
222  5600.2513
221  5665.8046
220  5512.4954
219  5676.1393
218  5749.3114
217  5680.1709
216  5718.7181
215  5533.1368
214  5663.5924
213  5594.3476
212  5665.0543
211  5813.9332
210  5712.1246
209  5577.6152
208  5523.3853
207  5880.9884
206  5806.543
205  5780.7098
204  5933.5586
203  5898.9766
202  5927.9383
201  5779.3218
200  5993.1321
199  5853.24
198  5565.2439
197  5618.8313
196  5935.8421
195  5830.9195
194  6072.2092
193  5632.5791
192  5557.2053
191  5891.4224
190  5538.9001
189  5736.3618
188  5373.9091
187  5577.7027
186  5664.914
185  5690.3206
184  5718.1341
183  5754.6306
182  5948.1675
181  6085.4654
180  6254.5673
179  6474.7165
178  6443.1863
177  6260.8963
176  6336.4034
175  6273.8139
174  6196.6871
173  6074.9896
172  5865.7486
171  5736.3846
170  5475.0165
169  5382.7208
168  5074.6073
167  4729.3663
166  4288.1316
165  4405.3006
164  4263.511
163  3888.9579
162  3876.6482
161  3935.1283
160  4160.4971
159  4548.5352
158  5778.6823
157  7992.9458
156  14569.734
155  18914.499
154  14691.012
153  8479.9798
152  5432.6896
151  4665.4157
150  4132.6288
149  3992.8359
148  3702.5788
147  3426.4148
146  3549.2341
145  3466.6017
144  3645.4602
143  3417.1691
142  3390.3995
141  3522.1258
140  3337.956
139  3470.4582
138  3230.7211
137  3285.4233
136  3284.4844
135  3143.9272
134  3295.7036
133  3240.9974
132  3384.6015
131  3695.7545
130  3767.2836
129  3897.7218
128  3949.0447
127  4155.5605
126  4064.1016
125  3970.7396
124  3960.3551
123  3652.4952
122  3742.0755
121  3460.0094
120  3126.8113
119  2945.0229
118  2717.7451
117  2507.7576
116  2245.0466
115  1971.7894
114  1566.4526
113  1390.1174
112  1256.7338
111  1135.5272
110  1297.3344
109  1275.3414
108  1406.0989
107  1858.054
106  3563.1168
105  13858.015
104  21834.078
103  11408.094
102  4174.2087
101  1498.7474
100  1141.2667
99  1021.363
98  982.5351
97  1044.3281
96  1090.3024
95  976.57359
94  881.45686
93  978.33109
92  1021.9225
91  976.24026
90  962.45262
89  1070.4117
88  1144.3746
87  1065.3347
86  1054.0968
85  998.93409
84  1039.3419
83  1040.9888
82  1117.0611
81  1076.9783
80  1092.4821
79  1168.6398
78  1017.6272
77  1112.8495
76  1062.627
75  1068.3363
74  1111.4159
73  1150.2389
72  1120.3282
71  1255.9495
70  1094.4287
69  1167.1744
68  1034.8895
67  1078.0237
66  1137.5018
65  1255.9445
64  1226.9024
63  1098.4544
62  1099.4434
61  1195.965
60  1141.4264
59  969.31064
58  1018.6193
57  1116.1101
56  1129.752
55  1085.4976
54  1173.9026
53  1099.5693
52  1179.1106
51  1305.5744
50  1277.5938
49  1293.1171
48  1165.8328
47  1268.2574
46  1153.8513
45  998.81263
44  1034.7502
43  1021.8164
42  976.99423
41  924.69922
40  1058.0724
39  981.63756
38  831.61819
37  770.47074
36  723.63308
35  716.07221
34  959.36066
33  1003.1156
32  872.01244
31  964.18797
30  1174.6028
29  1602.5121
28  2130.0795
27  3032.8569
26  3502.0915
25  2577.6878
24  1253.5339
23  509.97822
22  372.55687
21  347.55581
20  322.96006
19  446.04347
18  588.50331
17  710.74762
16  952.75615
15  899.74377
14  918.49695
13  857.4215
12  767.37818
11  554.86909
10  708.5277
9  910.48331
8  852.77417
7  690.49422
6  265.50269
5  106.0201
4  50.36603
3  20.012135
2  37.933641
1  16.113301
0  9.4716225