# Region:            Survey 200s 3k 36uA H=5 (5)
# Acquisition Date:  11/08/19 00:15:15 UTC
# Analysis Method:   XPS
# Analyzer:          Phoibos
# Analyzer Lens:     MediumArea:1.5kV
# Analyzer Slit:     4:3x20\B:open
# Scan Mode:         FixedAnalyzerTransmission
# Curves/Scan:       1
# Values/Curve:      1301
# Dwell Time:        0.1
# Excitation Energy: 1486.71
# Binding Energy:    1300
# Pass Energy:       50
# Bias Voltage:      90
# Detector Voltage:  1900
# Eff. Workfunction: 4.395
# Source:            Focus
# Comment:           
#
# Cycle: 0
# Number of Scans: 2
#
# Cycle: 0, Curve: 0
# Acquisition Date: 11/08/19 00:15:15 UTC
#
# ColumnLabels: energy counts/s
#
1300  14930.57
1299  14886.256
1298  15090.098
1297  14982.413
1296  14931.93
1295  14556.099
1294  15216.943
1293  15053.568
1292  15029.548
1291  14680.476
1290  14641.457
1289  14552.273
1288  15025.363
1287  14919.877
1286  14593.881
1285  14899.181
1284  14780.74
1283  14965.632
1282  14722.332
1281  14643.314
1280  14151.666
1279  14417.728
1278  14435.022
1277  14705.191
1276  14923.226
1275  14880.742
1274  14641.644
1273  14590.521
1272  15102.899
1271  14916.102
1270  14712.805
1269  14628.566
1268  14466.791
1267  14627.581
1266  14492.723
1265  14617.651
1264  14708.461
1263  15080.696
1262  14616.605
1261  14952.5
1260  15061.317
1259  14958.202
1258  14576.026
1257  14785.084
1256  14963.19
1255  14728.827
1254  14622.309
1253  14692.363
1252  15047.343
1251  14806.15
1250  14851.968
1249  14576.889
1248  14596.028
1247  14544.722
1246  14811.38
1245  15212.49
1244  14574.188
1243  14510.34
1242  14361.128
1241  14335.939
1240  14689.356
1239  14460.132
1238  14537.408
1237  14869.993
1236  14850.371
1235  14742.376
1234  14490.684
1233  14563.685
1232  14811.616
1231  14985.71
1230  14715.223
1229  14413.017
1228  14455.169
1227  14719.684
1226  14791.957
1225  14635.776
1224  14251.183
1223  14506.533
1222  14371.691
1221  14635.747
1220  14933.533
1219  14395.383
1218  14734.621
1217  14584.64
1216  14691.406
1215  14734.692
1214  14473.052
1213  14128.077
1212  14449.782
1211  15083.198
1210  14558.872
1209  14457.738
1208  14591.732
1207  14866.403
1206  15206.888
1205  14882.77
1204  14749.454
1203  14390.04
1202  14986.436
1201  14999.127
1200  14396.885
1199  14759.682
1198  14849.18
1197  14832.02
1196  15027.441
1195  14911.413
1194  14723.159
1193  14939.187
1192  14962.917
1191  14742.747
1190  14525.246
1189  14821.647
1188  14845.208
1187  14841.3
1186  14851.574
1185  14412.496
1184  14522.898
1183  14592.562
1182  14483.934
1181  14668.348
1180  14584.182
1179  14440.805
1178  14661.746
1177  14576.477
1176  14369.451
1175  15271.034
1174  15161.882
1173  14379.23
1172  14355.492
1171  14909.131
1170  14930.296
1169  14567.939
1168  14768.251
1167  14974.023
1166  14994.718
1165  15007.308
1164  14650.727
1163  14744.484
1162  14925.622
1161  15022.531
1160  14785.355
1159  14583.614
1158  14921.885
1157  15356.735
1156  14890.706
1155  14752.905
1154  14703.472
1153  14525.69
1152  14414.822
1151  14889.441
1150  14690.402
1149  14630.996
1148  14929.934
1147  15155.162
1146  15313.942
1145  14923.328
1144  14739.41
1143  14986.459
1142  15067.486
1141  15302.05
1140  15345.328
1139  14865.586
1138  14634.386
1137  14693.158
1136  14610.766
1135  15497.977
1134  15060.967
1133  15107.432
1132  15016.652
1131  14803.342
1130  15227.599
1129  15064.624
1128  14979.544
1127  14732.523
1126  14892.063
1125  14813.873
1124  15212.977
1123  14904.351
1122  14810.014
1121  14890.926
1120  15547.787
1119  15351.135
1118  15678.502
1117  15280.651
1116  15425.409
1115  15346.421
1114  15202.664
1113  15233.522
1112  15117.625
1111  15325.939
1110  15756.897
1109  15283.89
1108  15408.673
1107  15000.386
1106  15345.79
1105  15065.923
1104  15051.387
1103  15405.98
1102  15628.049
1101  15614.435
1100  15616.517
1099  15127.768
1098  15169.376
1097  15270.509
1096  15945.131
1095  15600.913
1094  15554.723
1093  15393.406
1092  15386.571
1091  15295.541
1090  15323.665
1089  15505.256
1088  15389.812
1087  15382.807
1086  15725.903
1085  15681.671
1084  15777.868
1083  15412.558
1082  15226.293
1081  15582.841
1080  15817.905
1079  15917.342
1078  15693.952
1077  15615.094
1076  15969.227
1075  15773.088
1074  15728.897
1073  15484.379
1072  15854.541
1071  16217.343
1070  16098.483
1069  15960.441
1068  16322.576
1067  15708.183
1066  15910.63
1065  16050.81
1064  16111.194
1063  16130.264
1062  15868.807
1061  16543.356
1060  16118.158
1059  16177.794
1058  16365.023
1057  16125.417
1056  16318.41
1055  16345.353
1054  16063.152
1053  16823.317
1052  16508.645
1051  16297.897
1050  16726.101
1049  16732.442
1048  17176.183
1047  16940.917
1046  16854.402
1045  17275.066
1044  16937.785
1043  16867.988
1042  16698.497
1041  17033.811
1040  16765.457
1039  16981.424
1038  16839.413
1037  16958.573
1036  16900.538
1035  17373.141
1034  17523.786
1033  17055.102
1032  16986.977
1031  17378.776
1030  17783.212
1029  17805.093
1028  18003.352
1027  17938.339
1026  18109.795
1025  18316.7
1024  18190.678
1023  18281.74
1022  18647.732
1021  19402.806
1020  19388.71
1019  19413.542
1018  19073.269
1017  18807.938
1016  18606.897
1015  18282.253
1014  17925.22
1013  18149.275
1012  17672.413
1011  18701.363
1010  19159.167
1009  19347.348
1008  19514.316
1007  19590.194
1006  20456.308
1005  21207.125
1004  21922.854
1003  22587.546
1002  21656.645
1001  21599.087
1000  20214.323
999  19162.911
998  18845.64
997  17916.024
996  17482.68
995  17278.189
994  17466.899
993  17132.591
992  16919.366
991  17571.341
990  18114.83
989  17932.659
988  18066.87
987  19204.521
986  21765.697
985  24337.954
984  25979.494
983  28539.54
982  30008.016
981  29468.264
980  27012.894
979  23169.037
978  20240.955
977  18403.992
976  16689.593
975  14932.09
974  14208.487
973  12894.343
972  11874.126
971  10878.588
970  9727.0599
969  9441.6621
968  8725.1211
967  8696.1127
966  8522.2699
965  8390.0383
964  8547.5127
963  8647.7225
962  8615.2138
961  8416.6744
960  8448.6746
959  8478.318
958  8596.3352
957  8861.3849
956  8883.1123
955  8472.407
954  8389.7792
953  8385.406
952  8209.5378
951  8252.912
950  8420.958
949  8409.6524
948  8649.5729
947  8553.532
946  8633.9212
945  8611.0994
944  8762.2137
943  8461.9356
942  8805.2754
941  8618.3772
940  8828.9818
939  8892.8519
938  8630.2891
937  8790.884
936  8739.9877
935  9056.841
934  8712.9031
933  8751.9021
932  8573.7746
931  8424.5648
930  8668.6247
929  8722.1767
928  8821.1902
927  8806.0165
926  9016.3715
925  9044.9855
924  8782.8575
923  8732.0146
922  8822.5124
921  8836.7291
920  9253.4427
919  9102.712
918  9519.6101
917  9388.2046
916  9057.5318
915  9184.8833
914  9220.1898
913  9189.7628
912  9208.0988
911  9200.0727
910  9444.4389
909  9672.5113
908  9650.0866
907  9112.2124
906  9722.0752
905  9347.9881
904  9124.6294
903  9335.5891
902  9278.9049
901  9544.5152
900  9130.228
899  9327.3268
898  9306.1054
897  9469.4209
896  8783.0927
895  9208.222
894  9422.6296
893  9466.282
892  9556.1957
891  9449.4887
890  9510.5423
889  9493.0728
888  9606.6904
887  9368.5246
886  9216.1431
885  9699.7494
884  9701.7726
883  9615.7982
882  9829.7969
881  9857.6613
880  9804.732
879  9912.465
878  10026.893
877  9931.3002
876  9800.1187
875  10025.482
874  9747.4588
873  9654.2684
872  9894.5816
871  9859.9253
870  9941.5238
869  9747.5047
868  9936.8808
867  10065.583
866  9738.9114
865  10217.52
864  10147.264
863  10272.105
862  10133.974
861  10107.639
860  10260.637
859  10397.449
858  10204.44
857  10317.157
856  9980.9823
855  10422.057
854  10521.11
853  10539.158
852  10290.608
851  10123.706
850  10280.65
849  10218.302
848  10527.182
847  10537.871
846  10574.345
845  10779.156
844  10449.613
843  10672.595
842  11150.508
841  10933.525
840  10677.413
839  10724.998
838  10891.97
837  11005.518
836  10505.771
835  10343.1
834  10711.621
833  10739.598
832  10344.001
831  10909.985
830  10925.819
829  11253.919
828  11164.636
827  10902.295
826  11102.949
825  11644.194
824  10784.093
823  11430.378
822  11240.584
821  11052.861
820  11070.807
819  11566.923
818  11288.518
817  10952.929
816  11054.118
815  11014.353
814  11214.103
813  11236.168
812  10985.597
811  11242.61
810  11535.813
809  11439.781
808  11410.924
807  11680.398
806  11909.087
805  11865.306
804  11925.249
803  11161.15
802  11686.69
801  11403.046
800  11549.411
799  11940.517
798  11538.594
797  11641.383
796  11557.93
795  11621.784
794  11821.193
793  11810.547
792  11789.096
791  11738.945
790  11939.362
789  11647.258
788  12098.682
787  12206.649
786  11845.271
785  11592.333
784  11928.193
783  12167.619
782  12113.882
781  12072.705
780  12015.341
779  11939.85
778  11978.294
777  11792.25
776  12177.442
775  12010.302
774  12015.393
773  12205.922
772  12088.048
771  12430.664
770  12532.174
769  12465.086
768  12115.109
767  12111.144
766  12217.267
765  11988.809
764  11914.829
763  12235.781
762  12516.333
761  12307.295
760  12648.722
759  13089.025
758  12590.897
757  13098.905
756  12780.076
755  12546.984
754  13219.257
753  12903.651
752  13146.081
751  12891.581
750  12852.013
749  12664.297
748  12725.344
747  12797.956
746  12703.002
745  12910.154
744  13059.988
743  12635.418
742  12831.408
741  12925.266
740  13126.157
739  13210.201
738  12988.325
737  13211.561
736  13436.761
735  13402.715
734  13094.559
733  12972.181
732  12710.697
731  13244.559
730  13201.671
729  13475.181
728  13023.044
727  13276.004
726  13132.294
725  13324.556
724  13345.383
723  13051.229
722  13676.29
721  13326.614
720  13307.177
719  13312.83
718  13238.244
717  13420.363
716  13348.641
715  13592.038
714  13540.857
713  13850.381
712  13980.615
711  13825.204
710  13809.33
709  14028.747
708  14158.948
707  14046.53
706  14154.797
705  13904.074
704  13905.923
703  13684.858
702  14003.222
701  14715.86
700  14270.941
699  14392.495
698  14536.507
697  13960.384
696  14525.585
695  14425.293
694  14287.423
693  13912.208
692  14709.848
691  14805.669
690  14352.281
689  14549.748
688  15046.442
687  15274.149
686  14900.515
685  14785.637
684  14643.859
683  14311.478
682  14752.447
681  14473.055
680  14844.977
679  15005.705
678  14957.237
677  14700.356
676  14810.869
675  15425.604
674  15194.211
673  15422.473
672  15579.346
671  15154.504
670  14832.001
669  14619.311
668  15170.39
667  15693.003
666  15337.767
665  15290.54
664  15345.021
663  15494.742
662  15568.17
661  15814.432
660  15695.168
659  15662.983
658  16369.81
657  16116.622
656  15911.973
655  16286.738
654  16017.241
653  16038.746
652  16176.348
651  16203.533
650  16280.659
649  16409.543
648  16374.712
647  15885.862
646  15842.028
645  16087.691
644  16099.676
643  16251.471
642  16433.211
641  16406.144
640  16652.912
639  16542.422
638  16414.9
637  16606.115
636  16750.449
635  16842.453
634  16977.578
633  16956.918
632  16393.216
631  16920.11
630  17072.299
629  16573.974
628  17226.033
627  17198.41
626  17606.938
625  17035.542
624  17135.062
623  17377.094
622  17076.646
621  16942.158
620  17511.581
619  17913.692
618  17419.246
617  17437.895
616  17778.728
615  17223.892
614  17473.343
613  17448.217
612  17025.193
611  17800.58
610  17955.94
609  17550.441
608  17765.152
607  18029.732
606  18191.357
605  18262.546
604  18315.392
603  17793.662
602  18184.92
601  17889.314
600  17744.959
599  17615.927
598  17827.271
597  18380.02
596  18701.593
595  18784.903
594  18335.259
593  18259.993
592  18565.315
591  18789.888
590  18841.107
589  18417.42
588  19114.041
587  19210.154
586  19219.568
585  18704.505
584  19480.787
583  19423.887
582  18454.093
581  18742.921
580  19409.787
579  19441.124
578  18801.316
577  19240.524
576  19069.999
575  19252.362
574  19537.589
573  18829.627
572  18386.465
571  18032.277
570  18313.826
569  17917.584
568  18052.745
567  17884.304
566  18270.482
565  19204.764
564  19311.877
563  20154.613
562  21106.161
561  21853.061
560  22403.478
559  22906.747
558  23589.028
557  23660.048
556  23216.615
555  22477.041
554  20251.13
553  19048.333
552  18200.64
551  16844.38
550  15966.339
549  15488.614
548  15317.833
547  14046.204
546  13077.116
545  11563.874
544  10725.913
543  9520.5674
542  9023.2947
541  9149.6625
540  8720.2112
539  8985.796
538  10377.198
537  15596.034
536  41882.299
535  110208.68
534  131263.01
533  56299.055
532  15213.995
531  8466.5931
530  7437.7226
529  7131.1253
528  6577.2047
527  6726.5531
526  6752.7788
525  6737.4064
524  6255.8478
523  6589.1296
522  6827.3773
521  6555.4739
520  6721.9178
519  6488.6713
518  6613.9125
517  6673.5884
516  6543.4803
515  6533.7453
514  6712.7759
513  6607.5016
512  6731.3632
511  6740.6351
510  6339.3265
509  6562.2379
508  6449.0686
507  6518.6283
506  6721.2163
505  6702.5625
504  6502.9576
503  6470.2232
502  6441.5249
501  6231.2101
500  6551.4584
499  6442.6969
498  6610.6942
497  6760.1192
496  6616.276
495  6338.8009
494  6592.0932
493  6469.6916
492  6599.7368
491  6669.275
490  6914.7878
489  6532.227
488  6672.0692
487  6779.5624
486  6786.722
485  6651.9093
484  6757.8489
483  6613.0782
482  6529.2821
481  6731.3983
480  6694.4892
479  6371.0535
478  6861.7753
477  6853.0508
476  6674.4574
475  6766.996
474  6656.0913
473  6509.9791
472  6571.5718
471  6847.825
470  7008.7914
469  6906.4544
468  6582.8963
467  6822.2715
466  6581.5591
465  6967.4214
464  6796.781
463  6620.6143
462  6956.0911
461  7171.7971
460  6924.9199
459  6662.1197
458  6696.38
457  6817.2573
456  7066.074
455  7068.3431
454  6750.7667
453  6914.1859
452  6831.283
451  6765.5654
450  6885.5791
449  7027.9946
448  6870.8038
447  6902.4911
446  6940.4427
445  7260.2034
444  6975.4613
443  6798.6884
442  6938.8056
441  7042.3685
440  7015.5704
439  7250.6059
438  7144.4239
437  7013.983
436  6986.5071
435  7162.6748
434  7113.0219
433  7072.5652
432  7287.5546
431  7423.0076
430  7263.722
429  6854.4403
428  7110.7946
427  7074.8584
426  7145.73
425  7058.4733
424  7072.9396
423  7217.2185
422  7227.362
421  7059.8278
420  7126.8215
419  7153.7105
418  6819.3697
417  7195.7709
416  7365.4695
415  7073.9579
414  7372.3727
413  7150.1683
412  7257.3345
411  7330.351
410  7535.4684
409  7254.9808
408  7048.7152
407  7122.3291
406  7298.8462
405  7145.9069
404  7450.0688
403  7242.5071
402  7464.9264
401  7508.8782
400  7913.4442
399  7915.3808
398  7385.4173
397  7313.4856
396  7301.225
395  7375.5576
394  7406.0395
393  7134.1867
392  7333.1536
391  7621.9318
390  6921.6437
389  7069.5356
388  7155.9237
387  7036.8691
386  7252.1986
385  7088.1504
384  7217.634
383  7266.369
382  7242.2233
381  7072.6959
380  7202.7972
379  6921.6064
378  7155.1254
377  7313.2276
376  7112.538
375  7210.0479
374  7399.5231
373  7085.535
372  7195.3546
371  7158.7678
370  7215.8408
369  7347.1967
368  7029.5341
367  7048.4057
366  7106.3652
365  7191.4997
364  7143.0998
363  7372.0598
362  7489.0298
361  7469.2438
360  7176.4756
359  7052.2577
358  7138.0276
357  7245.2416
356  7404.9911
355  7542.9828
354  7430.8564
353  7484.2511
352  7834.3413
351  7760.9259
350  7989.1893
349  7569.3452
348  7636.4487
347  7242.0184
346  7372.8924
345  7288.6352
344  7226.2134
343  7552.7189
342  7409.8532
341  7331.9689
340  7255.6835
339  7195.8287
338  7489.0444
337  7556.4623
336  7543.9967
335  7131.9185
334  6924.4483
333  7018.2799
332  7566.0651
331  6954.7765
330  7048.1465
329  7266.2419
328  7324.0223
327  7097.4554
326  6979.2771
325  7313.4717
324  7062.5209
323  7250.4373
322  7764.4201
321  8037.3856
320  7804.0613
319  7382.6035
318  7323.7439
317  7287.8687
316  7169.2496
315  7279.7278
314  6877.5972
313  7117.9755
312  7435.4929
311  7672.7851
310  7346.7083
309  7410.7175
308  7462.1796
307  7529.8676
306  7473.4685
305  7550.7088
304  7363.8112
303  7274.3279
302  7275.5685
301  7424.2553
300  7177.7208
299  7264.6152
298  7274.2748
297  7225.852
296  7115.1638
295  7375.6304
294  7621.3809
293  7504.1202
292  7049.8239
291  7403.8836
290  7385.8602
289  6968.0908
288  7001.1671
287  7180.0559
286  7138.0787
285  7233.1016
284  7166.3168
283  7324.7365
282  7190.8051
281  7151.6613
280  6906.5966
279  7047.7176
278  6960.6573
277  7215.9598
276  7165.9234
275  6979.3652
274  7184.5705
273  7378.5052
272  7139.2024
271  7311.7146
270  7176.0488
269  7339.8093
268  7347.7271
267  7210.9159
266  7053.8338
265  7178.1038
264  7025.7458
263  7167.6281
262  6981.1421
261  7237.9535
260  6976.2694
259  6540.5207
258  6915.0339
257  6927.3235
256  7161.0904
255  7089.8952
254  6721.3949
253  6781.984
252  6772.5982
251  6729.8342
250  6739.4484
249  6549.9476
248  6638.4664
247  7083.8363
246  7509.7095
245  7898.9211
244  8403.2824
243  7958.2238
242  7419.3671
241  6553.0962
240  6709.919
239  6528.3568
238  6924.6727
237  6920.8062
236  6421.6111
235  6866.4094
234  7042.8663
233  6980.6182
232  6957.6631
231  6948.5828
230  6719.4292
229  7020.5446
228  7107.7157
227  6678.8286
226  6674.5418
225  6922.4046
224  6756.5776
223  6826.3042
222  6639.2385
221  6671.2328
220  6773.1159
219  6604.9818
218  6779.0483
217  6909.4871
216  6836.6921
215  6726.82
214  6749.7334
213  6810.2283
212  6741.5103
211  6346.9969
210  6508.2497
209  6845.4391
208  7050.82
207  6870.4061
206  6597.493
205  6572.884
204  7031.6871
203  6843.4588
202  6660.5901
201  6872.6252
200  6935.3539
199  7047.2909
198  6773.6383
197  6972.6784
196  6996.8164
195  7141.3591
194  6674.1439
193  6857.0456
192  6817.4919
191  6530.7968
190  6716.6183
189  6494.6252
188  6421.8945
187  6480.8292
186  6595.8828
185  6970.9633
184  7062.6335
183  7171.8564
182  7387.8403
181  7231.367
180  7546.9022
179  7958.3237
178  7734.5411
177  8010.9714
176  7337.8442
175  7407.6418
174  7057.7607
173  6835.0803
172  6711.9219
171  6551.2093
170  6269.2812
169  6090.4204
168  5940.2097
167  5545.2463
166  5235.93
165  4971.9438
164  4849.1701
163  5009.8531
162  4611.8751
161  4985.4687
160  5733.6589
159  7594.8653
158  11977.091
157  20897.41
156  27860.364
155  22048.017
154  12892.81
153  7913.1097
152  5889.6771
151  5580.1897
150  5048.2477
149  4397.301
148  4338.9937
147  4178.7258
146  4193.176
145  4004.4948
144  3891.9195
143  4008.0354
142  3953.0378
141  4161.8303
140  3952.131
139  3832.2362
138  3873.1765
137  3536.7384
136  3636.0835
135  3847.4326
134  3842.9761
133  4023.3915
132  4092.6804
131  4254.7367
130  4291.4471
129  4269.8093
128  4602.5114
127  4451.8249
126  4473.9776
125  4630.465
124  4302.7249
123  3765.7289
122  3619.654
121  3529.0772
120  3487.0174
119  3248.0739
118  3036.1117
117  2709.4209
116  2432.5628
115  2213.651
114  1944.2955
113  1707.5015
112  1801.1212
111  1535.7533
110  1381.9658
109  1466.4194
108  2355.0669
107  6015.3053
106  18032.018
105  30652.333
104  21323.36
103  6734.7042
102  2181.357
101  1401.6399
100  1747.2838
99  1510.2946
98  1037.4526
97  944.98479
96  962.18949
95  1117.5766
94  1013.3995
93  953.23592
92  1035.0198
91  1037.0299
90  1023.072
89  934.1912
88  1071.8641
87  1059.8546
86  912.2366
85  944.70952
84  1059.5166
83  1062.9684
82  1016.9273
81  1071.8764
80  1030.9971
79  1110.316
78  1029.0213
77  1115.5269
76  951.10283
75  973.64129
74  1046.8296
73  979.72171
72  1096.4407
71  1095.9401
70  1116.8853
69  1011.9223
68  1051.6616
67  1016.0305
66  998.34717
65  1028.888
64  1079.717
63  1173.8021
62  1228.0129
61  1146.1088
60  1205.5982
59  1231.2843
58  1176.9143
57  1076.2124
56  1195.4686
55  1254.8625
54  1306.5763
53  1436.0463
52  1452.7372
51  1267.983
50  1342.7993
49  1443.551
48  1276.689
47  1128.2132
46  1162.0215
45  1097.9817
44  968.66191
43  922.63074
42  1027.5001
41  979.2214
40  1035.985
39  981.44254
38  1009.0396
37  937.68552
36  893.29735
35  1035.3494
34  1149.2025
33  1050.4711
32  1227.2624
31  1401.7171
30  1806.1601
29  2700.285
28  3937.1027
27  4641.3278
26  3936.2179
25  2323.6184
24  1086.6619
23  550.90872
22  349.7664
21  301.36289
20  238.45698
19  262.58093
18  345.75369
17  748.33506
16  1140.4525
15  1198.9333
14  1105.1746
13  1143.4635
12  1094.9228
11  1061.6396
10  1244.7904
9  1152.6647
8  1001.525
7  505.96297
6  275.08467
5  186.75051
4  90.96536
3  38.272692
2  33.87775
1  13.701525
0  13.246101