# Region:            Survey (9)
# Acquisition Date:  11/11/19 18:03:09 UTC
# Analysis Method:   XPS
# Analyzer:          Phoibos
# Analyzer Lens:     MediumArea:1.5kV
# Analyzer Slit:     4:3x20\B:open
# Scan Mode:         FixedAnalyzerTransmission
# Curves/Scan:       1
# Values/Curve:      1301
# Dwell Time:        0.1
# Excitation Energy: 1486.71
# Binding Energy:    1300
# Pass Energy:       50
# Bias Voltage:      90
# Detector Voltage:  1900
# Eff. Workfunction: 4.395
# Source:            Focus
# Comment:           decapado 10min
#
# Cycle: 0
# Number of Scans: 2
#
# Cycle: 0, Curve: 0
# Acquisition Date: 11/11/19 18:03:09 UTC
#
# ColumnLabels: energy counts/s
#
1300  6609.471
1299  6524.4082
1298  6360.8001
1297  6318.4962
1296  6515.6409
1295  6493.9833
1294  6598.2116
1293  6453.2133
1292  6220.6823
1291  6226.5631
1290  6088.3378
1289  6089.8589
1288  6048.622
1287  6335.1833
1286  6184.299
1285  6310.4626
1284  6018.0338
1283  6043.2339
1282  5999.5229
1281  5744.7624
1280  6083.2962
1279  5763.7653
1278  5762.464
1277  5873.4529
1276  5714.7062
1275  6060.2311
1274  6210.0003
1273  6052.5438
1272  6370.9854
1271  6189.0465
1270  6261.5858
1269  6063.123
1268  5537.8796
1267  5397.0444
1266  5269.835
1265  5554.4728
1264  5688.8426
1263  5575.2638
1262  5344.0697
1261  5575.9566
1260  5613.6792
1259  5479.2557
1258  5520.2325
1257  5364.9112
1256  5252.2644
1255  5420.0831
1254  5315.7242
1253  5155.3137
1252  5505.9783
1251  5347.2445
1250  5170.3707
1249  5456.6806
1248  5208.2398
1247  5591.111
1246  5597.1327
1245  5489.7916
1244  5415.9522
1243  5400.5451
1242  5553.1598
1241  5354.7789
1240  5565.348
1239  5325.8198
1238  5502.4374
1237  5453.1457
1236  5634.1597
1235  5216.4232
1234  5126.0713
1233  5278.707
1232  5454.7646
1231  5348.9621
1230  5338.3209
1229  5201.658
1228  5385.6219
1227  5489.8758
1226  5276.4515
1225  5315.9589
1224  5363.126
1223  5149.8987
1222  5164.2022
1221  5444.2155
1220  5509.3854
1219  5491.4094
1218  5236.7121
1217  5257.5409
1216  5259.6059
1215  5321.4544
1214  5067.0847
1213  5403.6461
1212  5403.8012
1211  5274.4132
1210  4974.5162
1209  5122.5982
1208  5145.3861
1207  5065.6096
1206  5158.077
1205  5204.1062
1204  5337.515
1203  5091.869
1202  4971.658
1201  5064.4431
1200  5153.6706
1199  5248.1361
1198  5022.4181
1197  4825.3823
1196  4986.9451
1195  5266.33
1194  5101.226
1193  5095.7109
1192  5060.2137
1191  5309.9312
1190  4968.7384
1189  4994.4503
1188  5164.6333
1187  4947.2876
1186  5239.3621
1185  5217.0596
1184  5077.7649
1183  5078.2838
1182  4949.411
1181  4938.2888
1180  5045.7039
1179  5063.3479
1178  5044.3825
1177  5235.5523
1176  5084.0885
1175  5189.2519
1174  5126.8553
1173  5070.6193
1172  4845.9831
1171  4911.3005
1170  5136.3509
1169  5023.3208
1168  4906.7561
1167  5187.0104
1166  4906.6322
1165  4820.6459
1164  5075.6898
1163  4988.9858
1162  4836.9542
1161  4918.4602
1160  5101.6506
1159  4898.8979
1158  4975.0849
1157  4891.2238
1156  5187.123
1155  5188.0383
1154  5139.7651
1153  5015.8302
1152  5080.5159
1151  5166.6321
1150  5241.3192
1149  5052.099
1148  4980.555
1147  5116.9964
1146  4916.9683
1145  4922.2712
1144  4804.8375
1143  5093.6174
1142  5036.7313
1141  5289.8801
1140  4793.3885
1139  5065.1168
1138  4931.6689
1137  5056.813
1136  5054.8291
1135  4981.7123
1134  5126.2248
1133  5143.2018
1132  5153.1687
1131  5012.3648
1130  4979.0595
1129  4802.9859
1128  5222.2053
1127  5360.036
1126  5070.7568
1125  5340.1967
1124  5205.2748
1123  5148.5855
1122  5285.2081
1121  5099.1062
1120  5385.4218
1119  5265.1558
1118  5057.6424
1117  5317.4081
1116  5262.1382
1115  5180.7367
1114  5089.1882
1113  4877.9404
1112  5002.0114
1111  5342.2681
1110  5434.981
1109  5463.2341
1108  5066.1196
1107  5083.2388
1106  5299.7736
1105  5303.9672
1104  5209.4528
1103  5165.3192
1102  5181.4959
1101  4981.4496
1100  5166.2553
1099  5198.6426
1098  5082.0693
1097  5205.3143
1096  5033.5798
1095  5062.4499
1094  4929.0262
1093  5203.2631
1092  5197.5788
1091  5217.2077
1090  5145.8702
1089  5053.1523
1088  4923.1054
1087  4981.2104
1086  4916.3363
1085  5344.6213
1084  5008.6581
1083  4814.5599
1082  5290.0687
1081  5250.3418
1080  5161.0462
1079  5169.897
1078  5182.6467
1077  4998.0864
1076  5091.7409
1075  5276.0335
1074  5139.0498
1073  5407.3387
1072  5277.422
1071  5217.8775
1070  5017.5142
1069  5147.7209
1068  5077.9421
1067  5593.5205
1066  5379.543
1065  5398.9939
1064  5244.249
1063  5074.8696
1062  5283.267
1061  5385.8225
1060  5288.6994
1059  5266.0093
1058  5337.6893
1057  5295.3421
1056  5331.5746
1055  5130.59
1054  5141.3007
1053  5351.1339
1052  5188.5152
1051  5230.4864
1050  5136.7466
1049  5428.8475
1048  5506.3448
1047  5376.821
1046  5366.9437
1045  5341.7219
1044  5626.9614
1043  5532.5984
1042  5615.8218
1041  5299.4679
1040  5427.951
1039  5740.3717
1038  5790.2751
1037  5324.6989
1036  5543.6481
1035  5590.7629
1034  5750.4288
1033  5468.385
1032  5831.9374
1031  5781.6901
1030  6117.066
1029  5813.9045
1028  5725.924
1027  5739.6019
1026  5831.1998
1025  5862.5771
1024  5743.8251
1023  6004.9319
1022  5751.3648
1021  5809.7379
1020  6005.1706
1019  5970.2284
1018  5754.4634
1017  6015.7426
1016  6106.8978
1015  6175.9454
1014  6307.1011
1013  6380.8798
1012  6353.475
1011  6354.3268
1010  6142.4821
1009  5967.6117
1008  6129.8281
1007  6049.5149
1006  5974.5921
1005  6044.3703
1004  6198.3061
1003  6156.0947
1002  6477.9168
1001  6577.8776
1000  6516.3154
999  7062.5567
998  6997.9202
997  6692.4315
996  6820.3411
995  6664.4395
994  6557.3438
993  6745.862
992  6731.6867
991  6456.638
990  6257.546
989  6681.4812
988  6070.6312
987  6142.3822
986  6380.2379
985  6321.2561
984  6332.103
983  6150.2645
982  6467.2414
981  7085.6718
980  7516.5385
979  7635.4662
978  8046.3106
977  8082.8903
976  7873.9062
975  7541.5571
974  6677.7366
973  6254.6755
972  5838.9711
971  5622.0488
970  5276.7099
969  5047.1963
968  5340.8161
967  5055.0801
966  4891.7168
965  4706.78
964  5137.1081
963  4734.6498
962  4672.2448
961  4346.7562
960  4442.4421
959  4467.9141
958  4824.0292
957  4685.3535
956  4728.4028
955  4647.2326
954  4583.2943
953  4361.3498
952  4411.5517
951  4476.0635
950  4562.3305
949  4673.1299
948  4608.248
947  4712.9434
946  4619.9386
945  4479.9997
944  4487.8713
943  4492.7378
942  4747.0988
941  4648.7978
940  4660.3172
939  4827.1038
938  4535.1069
937  4707.8473
936  4626.3727
935  4759.9754
934  4552.1241
933  4662.5667
932  4686.6392
931  4878.9994
930  4984.8741
929  4752.218
928  4797.5803
927  4856.7613
926  4686.0211
925  4821.6491
924  4522.5823
923  4852.945
922  4757.7993
921  4698.0792
920  4750.8875
919  4757.269
918  4913.5524
917  4985.7487
916  5087.9711
915  4981.3111
914  4981.7612
913  4841.9713
912  4914.1241
911  5055.5067
910  4856.2445
909  4748.9787
908  5078.8245
907  5143.4752
906  4829.5627
905  4729.2961
904  4885.7729
903  5047.6455
902  4962.9345
901  4901.1184
900  4973.9453
899  4840.5763
898  4888.0462
897  4951.4431
896  5089.9883
895  5092.5487
894  5075.1705
893  4959.1303
892  5291.1073
891  5284.1275
890  4966.2916
889  5011.8537
888  5158.1293
887  5025.9058
886  4990.3002
885  5257.5856
884  5134.4354
883  5284.8249
882  5267.5897
881  5331.156
880  5222.7554
879  5130.1488
878  5186.5888
877  5189.8856
876  5352.5495
875  5291.4529
874  5398.6478
873  5305.2189
872  5530.6513
871  5372.1875
870  5194.8964
869  5150.5087
868  5179.976
867  5306.8594
866  5497.4104
865  5402.2054
864  5123.0163
863  5169.5832
862  5199.9177
861  5059.1957
860  5210.6332
859  5363.7672
858  5133.9016
857  5117.8093
856  5392.8276
855  5438.3345
854  5682.9164
853  5353.972
852  5394.1898
851  5370.3765
850  5434.519
849  5562.7433
848  5790.3765
847  5636.3194
846  5860.2136
845  5619.2468
844  5476.8303
843  5451.457
842  5416.9583
841  5398.8451
840  5347.7493
839  5506.6824
838  5671.9283
837  5550.7229
836  5612.3127
835  5627.878
834  5513.6336
833  5642.8828
832  5575.4137
831  5640.5841
830  5691.4354
829  5766.6245
828  5627.8673
827  5832.1726
826  5780.0682
825  5783.2248
824  5669.7715
823  5622.1625
822  5609.3265
821  5738.7759
820  5655.0639
819  5833.7137
818  5830.9889
817  5769.7172
816  5713.4798
815  5971.2259
814  6021.8016
813  5969.4705
812  5542.1247
811  5806.3556
810  5842.1685
809  5817.5137
808  5568.1099
807  5911.7113
806  5777.9331
805  5815.5255
804  5862.6261
803  6005.9592
802  5825.4936
801  5772.364
800  6112.8029
799  5852.3014
798  5741.4949
797  5580.4664
796  5819.6163
795  6131.7064
794  6121.3908
793  5861.9604
792  5881.0942
791  5977.9675
790  6275.2422
789  5750.6779
788  6090.8959
787  5842.6463
786  6115.8473
785  6198.2849
784  6314.9033
783  6225.4318
782  5933.7414
781  6054.0686
780  6014.5497
779  6176.4782
778  6166.1066
777  6000.3214
776  5874.6752
775  5824.3345
774  6014.1003
773  6608.8813
772  6087.6122
771  6011.1884
770  6186.2588
769  6465.3251
768  6172.9477
767  6307.6916
766  6405.1002
765  6071.5046
764  6114.5557
763  5983.1782
762  6140.5446
761  6211.6843
760  6358.8093
759  6309.7828
758  6178.8758
757  6329.2857
756  6098.9277
755  6335.8089
754  6368.9053
753  6427.4278
752  6487.956
751  6642.1874
750  6430.6446
749  6215.2839
748  6461.294
747  6231.7806
746  6319.4808
745  6172.9917
744  6459.7649
743  6579.7664
742  6315.9111
741  6626.4517
740  6386.3794
739  6548.6366
738  6635.9314
737  6584.6302
736  6543.4891
735  6496.5193
734  6410.9043
733  6640.5628
732  6569.3469
731  6347.629
730  6414.9332
729  6706.6509
728  6650.9745
727  6564.8311
726  6793.1148
725  6326.0024
724  6562.9175
723  6541.3276
722  6568.8459
721  6605.9037
720  6761.2102
719  6610.4655
718  6538.1138
717  6496.2379
716  6725.133
715  6603.9218
714  6631.0433
713  6600.289
712  6535.9554
711  6900.7332
710  6902.1597
709  6895.6442
708  6889.9791
707  7146.1411
706  6763.0121
705  6670.0532
704  6823.6964
703  6918.3
702  6747.2814
701  6525.4657
700  6682.0162
699  6603.3603
698  6785.635
697  6768.433
696  6959.8355
695  7044.4195
694  7146.2407
693  7039.3819
692  6855.5636
691  6622.6335
690  6999.6658
689  7007.5285
688  6986.3163
687  6867.0492
686  6879.1649
685  6870.1669
684  7228.6281
683  6944.7369
682  6886.4297
681  6957.0878
680  7073.0665
679  7234.9742
678  7210.3561
677  7096.4734
676  7233.8518
675  7219.6401
674  6672.404
673  6857.4065
672  7145.4058
671  6988.5994
670  7299.3999
669  7134.8394
668  7018.7568
667  7232.7001
666  7216.6206
665  6862.0337
664  7188.637
663  7372.9117
662  7280.3755
661  7190.6128
660  7363.0226
659  7327.1541
658  7220.5993
657  7147.9702
656  7552.8811
655  7175.7012
654  7127.7119
653  7585.2837
652  7100.3947
651  7340.6506
650  7680.2656
649  7151.2232
648  7300.4246
647  7131.0441
646  7450.328
645  7591.7079
644  7670.1611
643  7591.8679
642  7291.6346
641  7770.9666
640  7749.9779
639  7733.186
638  7633.5011
637  7711.4549
636  7761.0493
635  7311.0465
634  7656.8696
633  7659.9328
632  7642.8807
631  7547.8407
630  7585.4484
629  7681.1001
628  7826.1987
627  7563.4314
626  8023.044
625  7944.2243
624  7851.38
623  7615.7052
622  7719.0173
621  7522.4701
620  7714.3585
619  7742.5044
618  8038.5916
617  7757.1341
616  7740.6739
615  7981.8983
614  8078.3838
613  8154.9326
612  8140.6087
611  8041.7585
610  8122.9554
609  7875.2662
608  8003.9258
607  7996.2231
606  8239.1518
605  8402.1039
604  8224.2858
603  8074.9817
602  8189.0938
601  8342.416
600  8412.2624
599  8409.355
598  8582.1662
597  8401.2822
596  8738.4124
595  8638.4413
594  8390.1045
593  8325.1194
592  8289.231
591  8667.1427
590  8478.9127
589  8397.1177
588  8561.8656
587  8658.9838
586  8653.6142
585  8607.4246
584  8922.15
583  8817.6424
582  8826.4256
581  8689.5591
580  8872.466
579  8839.838
578  8738.7866
577  8633.5805
576  8806.1238
575  8940.349
574  8833.9833
573  9219.4898
572  9049.4044
571  8845.8987
570  8855.3283
569  8806.916
568  8973.7521
567  9048.6833
566  8842.2602
565  8792.2185
564  9035.1681
563  9216.2768
562  9072.0077
561  8944.4553
560  9436.7448
559  9103.9722
558  8916.8865
557  9377.5246
556  9315.5565
555  9231.0226
554  9738.3451
553  9688.043
552  9677.9067
551  9701.9461
550  9934.1763
549  9841.1575
548  9854.8198
547  9729.1111
546  9254.8668
545  9142.4836
544  8864.5201
543  8553.1141
542  8498.5796
541  8823.734
540  8774.1672
539  8465.4553
538  8706.6649
537  8992.2113
536  8383.4774
535  8956.0018
534  10863.376
533  14991.85
532  23000.713
531  20837.989
530  10040.539
529  7738.3318
528  7817.9056
527  8128.5643
526  7820.6699
525  7823.423
524  8089.7883
523  7926.1647
522  7889.3804
521  7440.772
520  7281.0613
519  7776.2386
518  7612.5125
517  7790.188
516  7326.7137
515  7957.4373
514  7860.9459
513  7857.269
512  8003.386
511  8006.263
510  7929.9449
509  7967.4471
508  7641.6568
507  8019.9883
506  7893.377
505  7894.9173
504  7713.4817
503  7584.4961
502  7824.6719
501  8077.7933
500  7873.4225
499  8393.4284
498  8012.8004
497  7982.1367
496  8136.2533
495  7897.8474
494  8056.6345
493  8400.8799
492  8100.6654
491  8133.7318
490  7919.0951
489  8207.0513
488  8363.8684
487  8156.1941
486  7973.9929
485  7929.8785
484  8264.6698
483  8110.8017
482  8164.1709
481  8232.9409
480  8059.7544
479  8194.0822
478  7980.479
477  8066.8941
476  7983.8155
475  8063.1437
474  7916.7578
473  7964.2808
472  7995.0613
471  8264.4178
470  8118.0152
469  8195.1613
468  8191.4824
467  8238.0099
466  8470.463
465  8082.4897
464  8196.8292
463  8523.2625
462  8123.4029
461  8244.0598
460  8554.0328
459  8391.8801
458  8552.4283
457  8725.3028
456  8397.3151
455  8335.2322
454  8260.3433
453  8479.6697
452  8567.8132
451  8623.9692
450  8486.8766
449  8444.2175
448  8764.6538
447  8595.766
446  8554.347
445  8593.7888
444  8631.3093
443  8618.3199
442  8697.1464
441  8997.028
440  8748.0968
439  8787.613
438  9046.3372
437  8525.5951
436  8610.5405
435  8629.6519
434  8931.7638
433  8833.2301
432  8974.1758
431  8809.0522
430  8886.8059
429  8714.8311
428  8653.5708
427  8711.5299
426  8856.5297
425  8576.8141
424  8595.3793
423  8764.9816
422  9134.8533
421  8772.2146
420  8973.2685
419  9009.5776
418  8868.5588
417  8776.184
416  8852.0918
415  8903.8024
414  9245.2443
413  9358.2978
412  9174.9427
411  9195.6439
410  9504.1294
409  8911.8554
408  8970.6738
407  8917.3845
406  9110.0386
405  9146.6721
404  8607.3077
403  8886.0047
402  9552.195
401  9013.5898
400  8524.6682
399  9052.7428
398  9878.566
397  10004.37
396  9160.2189
395  9210.4707
394  9392.1305
393  9496.8346
392  9209.7394
391  9268.9345
390  9300.4566
389  9127.5059
388  9127.6854
387  8980.8515
386  9217.7848
385  9128.0009
384  9129.4356
383  9081.9957
382  9339.6106
381  9214.3932
380  9287.3291
379  9187.7212
378  9250.8914
377  9275.3011
376  9439.5294
375  9470.4255
374  9585.5871
373  9540.1173
372  9564.1049
371  9431.6113
370  9544.6805
369  9607.1468
368  9677.0914
367  9265.4308
366  9228.5587
365  9151.5633
364  9109.6763
363  9382.185
362  9394.0278
361  9601.5849
360  9628.1685
359  9811.7913
358  9686.8081
357  9408.9532
356  9540.1817
355  9709.9657
354  9834.852
353  9851.8474
352  9831.7558
351  9409.367
350  9534.8962
349  9537.0885
348  9866.582
347  9596.1859
346  9625.8034
345  9740.0607
344  9761.1618
343  9871.2509
342  9925.38
341  9926.4645
340  9788.6435
339  9953.9491
338  10180.637
337  10039.014
336  10547.075
335  10160.123
334  9959.617
333  10043.359
332  9944.2186
331  10506.481
330  10280.828
329  9800.0116
328  9757.4616
327  9914.4097
326  9946.38
325  9546.3553
324  10097.885
323  10072.812
322  9955.6299
321  11079.957
320  12012.768
319  11472.624
318  10801.579
317  10693.043
316  10091.41
315  10274.872
314  9651.2694
313  10026.845
312  10089.55
311  9959.3418
310  9880.0333
309  9970.8321
308  10126.555
307  9864.4841
306  10221.246
305  10342.986
304  9846.9821
303  9799.6065
302  10153.668
301  10274.6
300  10092.652
299  10107.864
298  10207.039
297  10189.475
296  10242.752
295  10368.892
294  10107.038
293  10276.325
292  10201.405
291  10194.698
290  10742.667
289  10404.629
288  10373.054
287  10241.484
286  10725.519
285  10470.788
284  10787.578
283  10982.184
282  11069.156
281  10456.589
280  10643.05
279  10343.557
278  10427.185
277  10779.978
276  10525.558
275  10374.795
274  10484.707
273  10571.074
272  10366.15
271  10747.301
270  10914.025
269  10953.548
268  10748.037
267  10099.38
266  10820.5
265  10818.636
264  10990.45
263  11291.559
262  11573.28
261  11438.109
260  11470.448
259  11268.591
258  11477.432
257  11322.224
256  10990.01
255  11309.777
254  11156.768
253  11044.033
252  10540.776
251  10411.885
250  10573.742
249  10547.295
248  10538.352
247  10518.275
246  10983.081
245  12183.889
244  14107.412
243  13458.75
242  17040.297
241  12755.887
240  10495.3
239  10658.348
238  10675.886
237  10717.091
236  11025.983
235  11122.686
234  10969.105
233  11083.64
232  10998.293
231  11353.542
230  11314.959
229  11094.238
228  11746.306
227  11590.6
226  10966.126
225  10817.368
224  11255.179
223  11007.279
222  10815.411
221  11423.959
220  11379.354
219  11506.253
218  11395.762
217  10907.89
216  11110.088
215  11186.209
214  11169.857
213  11148.916
212  11015.654
211  11416.166
210  11506.928
209  11766.44
208  11347.858
207  11570.058
206  11649.404
205  11971.693
204  12360.603
203  12004.564
202  12431.489
201  12360.086
200  12258.021
199  12322.952
198  12467.054
197  12187.753
196  11814.989
195  12091.479
194  12542.473
193  12449.474
192  12342.502
191  12505.774
190  13046.934
189  12844.951
188  13014.063
187  13361.849
186  13350.227
185  13187.847
184  13354.609
183  13706.261
182  12907.883
181  12721.237
180  12549.3
179  12456.217
178  12451.382
177  12280.841
176  12499.435
175  12889.644
174  12923.927
173  13596.346
172  13627.009
171  14499.878
170  15346.055
169  16327.463
168  16926.105
167  16221.557
166  14760.398
165  13533.041
164  13045.253
163  12480.852
162  11391.668
161  11247.159
160  11103.528
159  10903.84
158  10758.94
157  10652.062
156  10627.127
155  11698.199
154  12682.16
153  15767.947
152  24457.327
151  39941.696
150  33006.591
149  13938.381
148  9280.2002
147  8073.6194
146  7475.6488
145  7010.4179
144  7017.7699
143  6656.1327
142  7004.8957
141  7008.3757
140  6999.746
139  7224.5982
138  7416.2528
137  7465.7997
136  7567.5616
135  8077.231
134  7744.3151
133  7661.3357
132  7550.6852
131  7093.8962
130  7251.6212
129  6730.187
128  6374.5329
127  6247.4797
126  6267.5804
125  6380.4098
124  6217.3797
123  6506.741
122  6792.9035
121  7362.6046
120  8131.5272
119  9500.6524
118  10097.645
117  10416.051
116  9877.5797
115  8565.0808
114  7571.2711
113  6466.1142
112  5653.1371
111  5307.9553
110  4594.4998
109  4292.086
108  3818.6743
107  3760.4945
106  3574.0807
105  3658.6183
104  4121.8845
103  4674.0854
102  6798.1824
101  12136.216
100  32327.693
99  34968.537
98  5564.5474
97  1206.8956
96  747.86277
95  593.8792
94  729.90403
93  677.30165
92  650.52839
91  614.48373
90  640.15642
89  677.37568
88  576.43794
87  556.08518
86  608.91988
85  707.23492
84  605.5395
83  565.84997
82  744.53986
81  755.91325
80  697.45407
79  695.42958
78  676.26521
77  676.53985
76  705.27344
75  691.35664
74  701.33103
73  763.59767
72  782.85504
71  834.15156
70  768.595
69  683.1811
68  701.93055
67  798.65224
66  803.20438
65  815.16589
64  710.68384
63  847.44197
62  737.37219
61  749.85463
60  770.79171
59  800.67525
58  744.52018
57  703.42965
56  779.93579
55  854.28486
54  905.25463
53  822.19756
52  817.14621
51  831.83472
50  760.91265
49  802.61511
48  910.87888
47  813.52582
46  800.83895
45  941.3643
44  927.42992
43  1094.0781
42  956.1866
41  1061.6699
40  962.82861
39  1000.7173
38  1046.6069
37  849.23564
36  886.54197
35  940.79828
34  891.90116
33  753.32125
32  864.55013
31  915.92074
30  889.78584
29  947.79458
28  1033.5531
27  1250.2465
26  1384.7586
25  1419.9937
24  1331.3309
23  1710.8254
22  1343.5636
21  940.30591
20  795.82855
19  758.03276
18  582.04848
17  542.28587
16  634.43361
15  538.4594
14  645.17788
13  832.41834
12  947.46724
11  1050.9808
10  1516.9064
9  1858.8155
8  1278.7771
7  1116.2199
6  905.82865
5  875.44048
4  813.61792
3  866.64066
2  778.59803
1  471.84761
0  59.533728