# Group:             Spectrum Group
#
# Group:             Spectrum Group (2)
#
# Region:            Survey 300s 3k 36uA H=5
# Acquisition Date:  11/07/19 20:39:39 UTC
# Analysis Method:   XPS
# Analyzer:          Phoibos
# Analyzer Lens:     MediumArea:1.5kV
# Analyzer Slit:     4:3x20\B:open
# Scan Mode:         FixedAnalyzerTransmission
# Curves/Scan:       1
# Values/Curve:      1301
# Dwell Time:        0.1
# Excitation Energy: 1486.71
# Binding Energy:    1300
# Pass Energy:       50
# Bias Voltage:      90
# Detector Voltage:  1900
# Eff. Workfunction: 4.395
# Source:            Focus
# Comment:           
#
# Cycle: 0
# Number of Scans: 2
#
# Cycle: 0, Curve: 0
# Acquisition Date: 11/07/19 20:39:39 UTC
#
# ColumnLabels: energy counts/s
#
1300  15656.602
1299  15471.711
1298  15366.783
1297  15529.797
1296  15536.171
1295  15560.6
1294  15605.116
1293  15408.438
1292  15331.574
1291  14820.255
1290  15405.553
1289  14957.803
1288  14861.559
1287  15004.66
1286  15209.881
1285  15322.439
1284  15069.483
1283  15539.388
1282  15289.069
1281  15186.465
1280  15320.553
1279  15004.177
1278  15206.821
1277  15246.415
1276  15644.536
1275  15374.352
1274  15263.162
1273  15011.602
1272  15361.313
1271  15314.373
1270  15298.571
1269  15258.872
1268  15665.903
1267  15675.522
1266  15325.495
1265  15549.279
1264  15185.693
1263  15376.127
1262  15585.424
1261  15407.644
1260  15267.281
1259  15235.785
1258  15600.022
1257  15468.903
1256  15256.962
1255  15007.783
1254  15244.06
1253  15113.031
1252  15447.299
1251  14988.571
1250  14953.506
1249  15268.478
1248  14792.604
1247  15289.899
1246  15203.431
1245  15140.46
1244  15179.3
1243  14652.031
1242  14863.143
1241  15043.032
1240  15364.285
1239  15064.19
1238  14767.693
1237  14810.09
1236  15349.439
1235  14749.077
1234  15313.007
1233  15298.061
1232  15263.118
1231  14982.859
1230  15106.872
1229  15257.042
1228  15227.477
1227  15055.831
1226  15094.761
1225  14663.755
1224  15508.36
1223  14883.825
1222  15125.077
1221  14986.415
1220  15420.023
1219  15144.134
1218  15465.337
1217  15111.036
1216  15141.45
1215  15301.297
1214  14991.48
1213  14827.22
1212  14753.155
1211  14931.21
1210  14641.426
1209  14463.662
1208  14758.885
1207  14917.901
1206  14926.257
1205  15147.809
1204  15220.295
1203  15679.629
1202  15557.305
1201  15415.848
1200  15172.037
1199  15054.103
1198  14905.588
1197  14953.566
1196  15503.992
1195  15387.638
1194  15279.622
1193  15351.629
1192  15462.207
1191  15345.101
1190  15281.05
1189  15207.829
1188  15247.931
1187  15351.459
1186  15352.603
1185  15105.205
1184  15516.776
1183  15664.956
1182  15549.98
1181  15471.524
1180  15193.844
1179  15474.307
1178  15348.274
1177  15137.639
1176  14923.489
1175  15269.861
1174  15372.3
1173  14948.811
1172  15132.724
1171  15324.48
1170  15639.481
1169  15022.029
1168  15256.63
1167  15195.865
1166  14811.806
1165  15310.235
1164  15342.606
1163  15036.438
1162  15198.353
1161  15451.325
1160  15071.798
1159  14902.943
1158  15021.409
1157  15297.005
1156  15341.139
1155  15387.028
1154  15257.289
1153  15189.54
1152  15393.062
1151  15693.431
1150  15236.491
1149  15074.142
1148  15121.389
1147  15499.895
1146  15279.364
1145  15915.026
1144  15994.033
1143  15216.868
1142  15453.751
1141  15677.799
1140  15913.063
1139  16219.74
1138  15788.195
1137  15918.583
1136  15627.02
1135  15429.296
1134  14959.011
1133  15323.778
1132  15556.153
1131  15691.349
1130  16010.781
1129  15810.946
1128  15188.277
1127  15315.298
1126  15775.184
1125  15632.578
1124  15211.504
1123  14932.141
1122  15136.943
1121  15259.713
1120  15553.853
1119  16083.15
1118  16015.816
1117  15754.943
1116  15854.98
1115  15678.622
1114  15655.578
1113  15799.091
1112  15284.97
1111  15414.539
1110  15677.605
1109  15942.323
1108  15998.448
1107  15928.768
1106  15303.533
1105  15906.787
1104  15961.514
1103  15822.173
1102  15680.132
1101  15599.577
1100  15629.912
1099  15622.298
1098  15486.761
1097  15026.404
1096  15295.331
1095  15509.782
1094  15783.168
1093  15783.838
1092  15869.227
1091  15890.069
1090  15867.988
1089  15965.995
1088  16170.804
1087  15821.812
1086  15589.522
1085  16031.423
1084  16018.009
1083  16203.336
1082  15972.006
1081  16211.648
1080  15872.34
1079  15939.823
1078  16407.889
1077  16722.218
1076  15915.365
1075  16342.115
1074  16214.792
1073  16170.821
1072  16126.365
1071  16513.763
1070  16408.755
1069  16555.546
1068  16328.563
1067  16192.193
1066  16696.03
1065  16643.933
1064  15870.271
1063  16641.976
1062  16356.407
1061  16487.604
1060  16807.003
1059  16806.723
1058  16676.409
1057  16830.968
1056  16910.137
1055  16592.665
1054  16721.784
1053  16979.962
1052  17004.245
1051  16549.159
1050  17007.892
1049  17464.8
1048  16922.799
1047  16935.578
1046  17127.558
1045  17450.81
1044  17196.927
1043  16923.473
1042  17254.537
1041  17665.411
1040  17509.786
1039  17545.046
1038  16906.248
1037  17444.148
1036  17456.813
1035  17046.45
1034  17919.517
1033  17934.177
1032  18092.014
1031  17988.182
1030  17786.568
1029  17970.803
1028  17776.123
1027  18526.83
1026  18294.885
1025  18521.5
1024  18829.048
1023  18544.205
1022  18956.763
1021  19098.395
1020  19246.881
1019  18838.023
1018  19398.716
1017  19024.938
1016  18187.937
1015  18425.873
1014  18318.006
1013  18821.04
1012  18918.123
1011  19202.159
1010  18739.646
1009  20127.024
1008  20506.879
1007  20687.706
1006  20953.165
1005  21392.767
1004  22492.24
1003  22957.605
1002  21993.741
1001  20919.614
1000  19875.321
999  19106.022
998  19300.198
997  18685.394
996  18610.287
995  17279.224
994  17072.481
993  17451.013
992  17532.509
991  17716.711
990  18327.853
989  18834.193
988  19146.641
987  20518.262
986  22983.33
985  25156.518
984  26185.914
983  28264.685
982  30406.173
981  30034.762
980  26395.182
979  22574.315
978  20350.852
977  18364.579
976  16823.819
975  15075.695
974  14798.096
973  13213.654
972  12098.822
971  11681.799
970  10541.531
969  9535.7777
968  9508.8773
967  9113.5701
966  8975.4859
965  8846.0102
964  9099.0084
963  9245.1825
962  9490.4864
961  9342.8378
960  8991.9641
959  8851.2838
958  8882.6829
957  9048.6137
956  9000.5707
955  8684.5653
954  8796.0344
953  8619.0238
952  8870.9939
951  8872.7492
950  8875.5767
949  9092.2154
948  8901.4651
947  9059.9638
946  9107.0974
945  8966.4068
944  8885.8921
943  9056.119
942  9085.9541
941  9216.7317
940  9465.5634
939  9257.5408
938  9502.7769
937  9295.4071
936  9019.0918
935  9067.2021
934  8967.7894
933  9151.0949
932  9492.6263
931  9291.6139
930  9190.3359
929  9501.3197
928  9457.1941
927  9197.4388
926  9329.6663
925  9481.1132
924  9680.2863
923  9202.0022
922  9249.6293
921  9537.3735
920  9650.1543
919  9485.5638
918  9898.2834
917  9321.1181
916  9494.9971
915  9415.2781
914  9874.2781
913  9947.9238
912  9627.5766
911  9819.3978
910  10050.114
909  9798.3
908  9738.6141
907  9827.5162
906  9847.8015
905  9858.6701
904  9694.5366
903  9636.3982
902  9912.2868
901  9921.5345
900  9901.0395
899  9867.6244
898  9941.2859
897  10335.151
896  10242.399
895  10204.719
894  10362.697
893  10031.138
892  10116.817
891  10393.704
890  10242.608
889  9974.2617
888  9930.858
887  10505.62
886  10549.31
885  10247.996
884  9727.7978
883  9532.6821
882  9827.7576
881  10094.365
880  10559.063
879  10813.919
878  10773.97
877  10658.946
876  10367.851
875  10040.364
874  10423.625
873  10735.728
872  10959.462
871  10855.81
870  10772.951
869  10185.128
868  10486.242
867  10720.823
866  10602.038
865  10479.043
864  10881.786
863  10708.691
862  11063.89
861  10882.903
860  10464.517
859  10552.186
858  10843.079
857  10828.585
856  11066.278
855  10910.128
854  10870.5
853  11133.626
852  11369.562
851  11204.837
850  10686.559
849  10650.068
848  11084.834
847  11144.894
846  10870.035
845  11271.609
844  11524.961
843  11309.913
842  11339.144
841  11616.134
840  11257.879
839  11678.907
838  11343.464
837  11126.271
836  11412.415
835  10969.735
834  11216.017
833  11334.854
832  11473.255
831  11736.747
830  11398.889
829  11497.251
828  11505.317
827  11497.077
826  11481.337
825  11698.514
824  12129.286
823  11878.432
822  11895.005
821  11883.742
820  11811.805
819  11840.692
818  12058.602
817  11472.886
816  11651.155
815  11738.632
814  11932.219
813  12010.629
812  11473.78
811  11940.234
810  11869.163
809  12299.864
808  12384.102
807  12137.492
806  12038.4
805  12122.368
804  12383.481
803  12523.461
802  12602.429
801  12173.535
800  12112.749
799  12295.319
798  12254.398
797  12081.889
796  12337.685
795  12521.449
794  12926.707
793  12392.892
792  12550.832
791  12250.197
790  12407.349
789  12237.828
788  12761.792
787  12580.77
786  13211.276
785  12821.108
784  12860.473
783  12269.386
782  12925.016
781  12888.16
780  12809.564
779  13441.667
778  13087.082
777  13049.602
776  12791.501
775  12607.429
774  12893.192
773  12983.158
772  12616.001
771  12777.598
770  13064.207
769  13072.882
768  12811.094
767  13025.904
766  12730.886
765  13037.37
764  13445.377
763  13165.997
762  13248.453
761  12615.862
760  12874.607
759  12919.615
758  12873.963
757  13367.316
756  13376.772
755  13705.686
754  13599.966
753  13269.735
752  13571.794
751  13333.124
750  13701.085
749  13603.43
748  13570.681
747  13179.083
746  13357.628
745  13490.811
744  13435.868
743  13789.1
742  13632.205
741  13373.273
740  13774.891
739  13728.66
738  13401.794
737  13423.707
736  13897.479
735  13742.674
734  14062.218
733  13881.09
732  13561.579
731  13369.017
730  14089.899
729  14197.269
728  14050.551
727  14390.497
726  14276.817
725  14729.787
724  14473.43
723  14106.715
722  14121.465
721  14148.552
720  14023.319
719  14693.269
718  14544.413
717  14516.92
716  14033.186
715  14231.724
714  14463.796
713  14275.211
712  14184.989
711  14622.28
710  14289.312
709  14558.819
708  15036.792
707  14444.608
706  14429.113
705  14607.858
704  14670.985
703  14504.298
702  14962.79
701  14881.285
700  14830.821
699  14672.829
698  14728.115
697  14539.183
696  14773.868
695  14839.21
694  15159.501
693  14530.215
692  14768.445
691  15121.418
690  15319.161
689  15173.112
688  15216.82
687  15011.793
686  15314.239
685  15229.83
684  15360.556
683  15022.125
682  14944.985
681  15377.873
680  15350.858
679  15453.486
678  15734.287
677  15569.418
676  15344.397
675  15229.207
674  15578.704
673  15477.015
672  15947.324
671  15808.723
670  15396.239
669  15463.344
668  15998.719
667  15703.965
666  15723.405
665  15950.143
664  15625.675
663  16146.153
662  16177.86
661  15792.618
660  15907.655
659  16289.829
658  15991.657
657  16427.396
656  15994.798
655  15743.319
654  16083.708
653  16214.852
652  15998.552
651  16232.733
650  16072.89
649  16307.889
648  16421.971
647  16086.243
646  16522.088
645  16170.354
644  16149.089
643  16568.189
642  16705.23
641  16760.282
640  16787.684
639  16917.501
638  16997.397
637  16726.511
636  16539.083
635  16645.471
634  16741.799
633  17003.965
632  16674.567
631  17445.906
630  17090.056
629  16968.143
628  17330.511
627  17458.357
626  17296.741
625  17333.178
624  17426.366
623  17129.37
622  17736.207
621  17666.452
620  17539.243
619  17836.317
618  17315.291
617  17310.996
616  17054.95
615  17635.634
614  18014.097
613  18048.993
612  17716.122
611  17607.568
610  17833.864
609  17735.565
608  17497.877
607  17935.641
606  18097.533
605  17263.471
604  17984.713
603  18449.426
602  18106.056
601  17867.662
600  18063.039
599  17890.89
598  18181.326
597  18405.201
596  18028.713
595  18205.326
594  18235.846
593  18490.126
592  18571.764
591  18947.593
590  18620.772
589  18195.454
588  18938.403
587  19227.62
586  18566.762
585  18921.494
584  19587.944
583  18978.639
582  18517.906
581  18903.092
580  18649.082
579  18855.984
578  18796.716
577  18905.742
576  18640.936
575  19160.46
574  18567.118
573  18614.855
572  18786.21
571  18452.942
570  17774.955
569  17828.232
568  17703.966
567  18179.433
566  18699.521
565  18476.185
564  19124.499
563  20136.922
562  20616.531
561  21898.161
560  22896.032
559  22881.177
558  23103.887
557  23640.57
556  23285.759
555  21204.904
554  19915.305
553  18424.121
552  17529.014
551  16881.831
550  16067.962
549  14873.501
548  14222.814
547  13308.238
546  12328.182
545  11472.204
544  10032.207
543  9413.2138
542  9327.8119
541  8549.0002
540  8087.6718
539  8575.2141
538  10991.124
537  19782.396
536  48715.005
535  113135.13
534  120763.22
533  47710.586
532  13465.859
531  7991.2514
530  6946.185
529  6586.4808
528  6395.6287
527  6203.5415
526  5979.2925
525  5941.6504
524  6080.684
523  6403.9301
522  6321.7598
521  5975.6332
520  5996.1046
519  6170.4426
518  6210.1078
517  6283.7777
516  6116.3603
515  6312.0419
514  5999.7968
513  6132.681
512  6104.154
511  6113.7068
510  6039.7921
509  6059.4459
508  6138.39
507  6438.2512
506  6100.5124
505  5891.6872
504  5712.6598
503  6001.2731
502  6296.0466
501  6129.389
500  6139.7082
499  6142.1967
498  6096.2217
497  6375.8056
496  6230.9587
495  6407.1102
494  6179.3295
493  6093.475
492  5912.9398
491  6115.1298
490  6057.8553
489  6270.2715
488  6169.825
487  6062.9713
486  6137.8731
485  6127.4424
484  6213.5182
483  6354.7507
482  6172.7461
481  6460.6511
480  6353.2211
479  6236.8975
478  6337.5467
477  6420.7672
476  6362.2206
475  6144.046
474  6337.2546
473  6399.4826
472  6179.4407
471  6019.6182
470  6257.9413
469  6196.0322
468  6529.1878
467  6545.6759
466  6408.6126
465  6253.9284
464  5882.1542
463  6129.9361
462  6446.9901
461  6481.0869
460  6252.6305
459  6391.8604
458  6244.0448
457  6481.0149
456  6376.4147
455  6375.0078
454  6322.4403
453  6259.0994
452  6360.2694
451  6279.811
450  6238.9191
449  6198.8517
448  6416.0779
447  6408.3418
446  6361.6823
445  6184.7876
444  6482.8645
443  6496.776
442  6546.1879
441  6451.781
440  6476.4847
439  6397.5549
438  6568.4015
437  6310.4879
436  6488.57
435  6770.6392
434  6799.8289
433  6497.5107
432  6109.2107
431  6243.2047
430  6825.364
429  6466.4216
428  6824.7559
427  6788.0732
426  6417.4464
425  6381.0214
424  6432.3566
423  6371.9463
422  6328.1835
421  6721.0573
420  6333.8524
419  6358.9335
418  6477.0509
417  6503.961
416  6381.6793
415  6429.2549
414  6564.4365
413  6671.5043
412  6652.8858
411  6653.2266
410  6580.1757
409  6642.301
408  6656.2042
407  6456.3368
406  6439.7205
405  6755.5707
404  6394.5363
403  6540.4159
402  6930.6368
401  6935.4262
400  6971.51
399  6896.9591
398  6962.4504
397  6541.1166
396  6637.9861
395  6713.9598
394  6799.5997
393  6639.5815
392  6544.2549
391  6488.8608
390  6611.2749
389  6640.7412
388  6842.5584
387  6626.2271
386  6320.9203
385  6595.7446
384  6833.2173
383  6742.4383
382  6812.8636
381  6618.7741
380  6731.4423
379  6853.128
378  6796.5492
377  6561.1205
376  6524.4982
375  6731.2686
374  6556.1047
373  6662.3505
372  6875.5311
371  6343.6753
370  6458.2742
369  6480.6529
368  6451.2031
367  6510.8555
366  6468.6443
365  6712.9483
364  6466.145
363  6486.0959
362  6845.3593
361  6823.477
360  7076.9192
359  6750.9185
358  6709.0267
357  6945.9888
356  6759.6047
355  6552.9889
354  6429.1591
353  6669.6394
352  6860.9981
351  6794.9395
350  7068.8214
349  7116.4152
348  6608.367
347  6795.3095
346  6661.5999
345  6488.032
344  6715.7376
343  6505.5647
342  6416.7989
341  6459.8092
340  6292.5996
339  6393.9223
338  6840.1487
337  6563.4793
336  6638.0828
335  6577.7458
334  6519.4532
333  6546.4705
332  6352.7327
331  6518.6855
330  6657.3198
329  6585.7779
328  6610.6908
327  6436.6535
326  6579.5853
325  6545.0406
324  6682.5684
323  6823.2425
322  7053.7659
321  7245.322
320  7066.7184
319  7008.7034
318  6557.5989
317  6509.6176
316  6485.3751
315  6740.5791
314  6630.8767
313  6549.2424
312  6181.5607
311  6618.6493
310  6651.8995
309  6304.1572
308  6444.0589
307  6525.321
306  6410.4437
305  6455.9214
304  6674.0541
303  6248.9604
302  6349.9669
301  6300.2781
300  6201.5277
299  6192.6164
298  6511.0909
297  6518.7541
296  6579.3314
295  6485.6167
294  6294.1473
293  6939.0637
292  6687.9967
291  6555.5714
290  6221.8781
289  6549.8494
288  6566.6221
287  6897.7651
286  6340.3751
285  6636.7486
284  6613.9015
283  6336.6363
282  6482.5166
281  6346.9722
280  6414.8301
279  6636.593
278  6390.6065
277  6619.4856
276  6350.2156
275  6534.5894
274  6658.4609
273  6307.6918
272  6369.0252
271  6469.0653
270  6722.8755
269  6751.4691
268  6733.6332
267  6767.6553
266  6578.7294
265  6448.7787
264  6562.4869
263  6257.7907
262  6374.381
261  6215.3814
260  6273.7048
259  6181.2513
258  6109.1957
257  6209.4175
256  6458.5823
255  6440.5784
254  6319.2844
253  6251.7444
252  6353.1321
251  6252.6846
250  6359.0562
249  6348.8831
248  6280.5977
247  6413.5132
246  7108.5975
245  7174.1461
244  7786.7546
243  7535.9689
242  6714.3437
241  6173.6343
240  6188.0427
239  6301.9097
238  6119.1849
237  5863.8171
236  6300.1798
235  6048.8426
234  6314.1047
233  6355.5785
232  5944.5751
231  6072.5098
230  6135.614
229  6320.1
228  6015.7673
227  6006.6796
226  6120.1368
225  6120.8049
224  6190.7164
223  5978.3611
222  6045.8143
221  6251.7926
220  6215.5754
219  6423.9973
218  6413.0492
217  6171.7833
216  6207.832
215  6315.7203
214  6427.8529
213  6323.0058
212  6182.7255
211  6151.8762
210  6024.3868
209  6292.227
208  5983.9989
207  6197.6076
206  6249.2247
205  6232.5748
204  6245.3732
203  6569.1772
202  6453.2667
201  6298.8509
200  6172.0884
199  6507.8371
198  6524.9348
197  6435.9059
196  6262.5452
195  6492.2277
194  6434.3449
193  6439.2089
192  6244.8382
191  6299.8489
190  6478.865
189  6295.7211
188  6442.915
187  6460.8229
186  6795.4257
185  6427.5754
184  6766.6895
183  6926.1296
182  7014.8746
181  7031.8649
180  7197.7972
179  7487.0767
178  7445.9885
177  7457.7204
176  6998.3763
175  6882.5133
174  6811.7239
173  6327.1774
172  6182.8946
171  6084.754
170  5930.9583
169  5869.9286
168  5598.6011
167  5215.7422
166  5045.7574
165  4533.7848
164  4597.8951
163  4700.9151
162  4913.2344
161  5184.8924
160  6073.6753
159  7899.6923
158  13096.604
157  21760.605
156  26939.361
155  21014.482
154  11882.914
153  7187.65
152  5571.2221
151  4776.7181
150  4506.4074
149  4380.7401
148  4471.245
147  4174.7979
146  3918.2696
145  3807.7679
144  3936.2402
143  3915.9026
142  3738.4912
141  3658.272
140  3738.5137
139  3695.4897
138  3699.9148
137  3796.2745
136  3680.0799
135  3557.4873
134  3608.9037
133  3731.6133
132  4015.077
131  4181.8608
130  4289.6402
129  4414.6874
128  4832.3421
127  4463.1615
126  4179.1115
125  4507.7952
124  4086.3686
123  4107.1806
122  3665.599
121  3576.3039
120  3184.7492
119  3049.8832
118  2801.8633
117  2597.9256
116  2357.8764
115  2018.7836
114  1819.2181
113  1743.3349
112  1549.7945
111  1512.3921
110  1489.8288
109  1708.304
108  2961.6416
107  7584.0943
106  20568.097
105  29685.777
104  19272.678
103  6283.0727
102  2145.007
101  1446.7864
100  1656.6436
99  1369.3236
98  1225.3996
97  984.48738
96  948.38495
95  1034.392
94  1009.9054
93  988.26428
92  1010.0278
91  1086.7928
90  1015.3591
89  895.96786
88  1050.3225
87  1069.6881
86  1026.4129
85  1064.0611
84  1093.4799
83  1068.4043
82  1168.3151
81  1063.0791
80  974.78733
79  995.3453
78  967.77425
77  994.82849
76  1052.3012
75  1084.8485
74  1026.1765
73  1026.3937
72  1028.0294
71  1031.5154
70  1028.0416
69  1041.7635
68  1073.5189
67  1184.0205
66  1128.0182
65  1031.5354
64  976.82514
63  1061.8226
62  1156.8766
61  1261.3757
60  1079.0299
59  1072.6885
58  1101.2547
57  1283.9585
56  1129.2831
55  1386.9627
54  1374.8928
53  1369.1109
52  1353.6803
51  1262.9729
50  1397.8629
49  1399.1501
48  1299.123
47  1110.9953
46  1222.1346
45  1077.1878
44  1277.7658
43  975.73142
42  903.88731
41  1062.9613
40  1062.2909
39  942.21616
38  878.91779
37  966.96703
36  1088.791
35  1049.4352
34  1214.6787
33  1315.2947
32  1283.1056
31  1601.2738
30  1907.3341
29  2771.829
28  4139.876
27  4391.4963
26  3680.7381
25  1886.0575
24  944.38758
23  528.49451
22  292.84583
21  263.66788
20  217.40214
19  193.09584
18  407.93167
17  829.23005
16  1137.5694
15  1227.5173
14  1167.3346
13  1157.9032
12  1055.9861
11  1201.4625
10  1224.1191
9  1077.3626
8  818.78767
7  478.83476
6  275.27592
5  164.90307
4  114.71204
3  55.356029
2  19.084025
1  24.673295
0  16.81053