# Region:            Survey 200s 3k 36uA H=5 (6)
# Acquisition Date:  11/08/19 00:50:11 UTC
# Analysis Method:   XPS
# Analyzer:          Phoibos
# Analyzer Lens:     MediumArea:1.5kV
# Analyzer Slit:     4:3x20\B:open
# Scan Mode:         FixedAnalyzerTransmission
# Curves/Scan:       1
# Values/Curve:      1301
# Dwell Time:        0.1
# Excitation Energy: 1486.71
# Binding Energy:    1300
# Pass Energy:       50
# Bias Voltage:      90
# Detector Voltage:  1900
# Eff. Workfunction: 4.395
# Source:            Focus
# Comment:           
#
# Cycle: 0
# Number of Scans: 2
#
# Cycle: 0, Curve: 0
# Acquisition Date: 11/08/19 00:50:11 UTC
#
# ColumnLabels: energy counts/s
#
1300  15224.33
1299  15109.376
1298  15349.06
1297  15134.982
1296  14624.212
1295  14363.817
1294  14642.344
1293  14802.463
1292  14926.005
1291  14751.385
1290  14682.763
1289  14818.376
1288  14506.323
1287  14367.24
1286  14101.03
1285  14871.216
1284  14627.742
1283  15036.298
1282  14716.94
1281  14457.079
1280  15129.711
1279  15130.397
1278  15134.869
1277  14667.949
1276  14873.616
1275  14390.082
1274  14648.059
1273  14536.417
1272  14496.975
1271  14657.258
1270  14425.115
1269  14595.144
1268  14111.085
1267  14239.197
1266  14957.172
1265  14436.22
1264  14410.76
1263  14677.957
1262  14582.728
1261  14906.722
1260  14536.482
1259  14912.88
1258  14290.838
1257  14497.97
1256  14507.202
1255  15151.49
1254  15204.151
1253  14736.873
1252  14800.566
1251  14173.464
1250  14405.342
1249  14954.462
1248  14617.025
1247  14531.631
1246  14509.256
1245  14775.54
1244  14420.602
1243  14790.614
1242  14457.043
1241  14634.128
1240  14660.631
1239  14678.105
1238  14290.336
1237  14670.656
1236  14388.21
1235  14298.117
1234  15005.39
1233  14486.916
1232  14727.215
1231  14346.043
1230  14441.376
1229  14153.76
1228  14388.4
1227  14519.691
1226  14603.475
1225  14524.425
1224  14839.15
1223  15241.356
1222  14789.508
1221  15047.316
1220  15216.08
1219  14923.195
1218  14698.678
1217  14790.482
1216  14496.125
1215  14055.026
1214  14450.814
1213  14194.881
1212  14320.534
1211  14492.857
1210  14526.88
1209  14060.614
1208  14360.784
1207  14577.801
1206  14713.118
1205  14376.672
1204  14399.283
1203  14340.908
1202  14181.199
1201  14784.037
1200  14567.627
1199  14559.71
1198  14677.938
1197  14315.875
1196  14625.299
1195  14806.27
1194  14657.542
1193  14331.53
1192  14799.091
1191  14573.965
1190  14369.051
1189  14209.368
1188  14548.159
1187  14599.624
1186  14864.545
1185  14909.621
1184  14785.739
1183  14919.614
1182  14255.176
1181  14257.166
1180  14348.981
1179  14964.549
1178  14484.241
1177  14682.959
1176  14537.317
1175  14298.936
1174  14506.609
1173  14582.822
1172  14823.489
1171  14776.769
1170  14868.68
1169  15501.2
1168  14851.55
1167  14479.684
1166  14292.224
1165  14633.416
1164  14865.101
1163  14748.21
1162  14382.738
1161  14482.803
1160  14429.634
1159  14433.529
1158  14586.692
1157  14998.408
1156  15066.048
1155  14563.471
1154  14689.871
1153  14718.956
1152  14762.064
1151  14319.474
1150  14263.581
1149  14963.372
1148  14653.552
1147  14859.765
1146  15047.606
1145  14630.262
1144  14650.386
1143  14418.769
1142  14878.644
1141  15189.831
1140  15101.846
1139  15101.148
1138  15057.841
1137  14787.096
1136  15113.233
1135  14884.672
1134  15057.218
1133  14793.869
1132  15157.938
1131  14836.26
1130  14744.733
1129  15179.327
1128  15011.156
1127  15139.665
1126  15208.993
1125  15386.087
1124  15096.408
1123  15156.227
1122  15483.816
1121  15424.473
1120  15196.608
1119  15498.522
1118  15944.259
1117  15130.088
1116  14876.024
1115  15280.966
1114  15192.469
1113  14690.003
1112  15188.948
1111  15114.506
1110  15217.868
1109  15471.753
1108  15187.09
1107  14871.406
1106  15162.006
1105  15380.959
1104  14822.364
1103  15023.134
1102  15305.111
1101  15079.083
1100  15269.499
1099  15109.17
1098  15164.645
1097  15470.996
1096  14760.518
1095  14838.824
1094  15323.189
1093  15593.693
1092  15455.56
1091  15558.603
1090  15239.872
1089  15642.072
1088  15811.134
1087  15705.725
1086  15940.377
1085  15808.618
1084  15496.372
1083  15727.091
1082  15288.023
1081  15679.799
1080  15513.853
1079  15530.47
1078  15817.383
1077  15779.524
1076  15558.856
1075  15577.72
1074  15840.132
1073  15710.525
1072  15907.864
1071  15952.447
1070  16080.814
1069  15961.701
1068  16348.978
1067  15824.585
1066  15692.845
1065  15858.706
1064  16220.312
1063  15869.17
1062  15244.053
1061  15214.692
1060  16189.153
1059  16215.622
1058  15733.083
1057  15518.166
1056  16222.794
1055  16386.42
1054  16875.981
1053  16230.538
1052  16124.653
1051  16671.464
1050  16125.077
1049  16678.851
1048  16668.314
1047  16833.157
1046  16856.624
1045  16945.395
1044  16847.067
1043  16971.624
1042  17071.284
1041  16911.56
1040  17103.045
1039  17161.413
1038  17113.643
1037  16321.866
1036  17050.18
1035  17359.753
1034  17163.665
1033  17338.504
1032  17165.693
1031  17011.641
1030  17388.199
1029  17209.596
1028  17653.518
1027  18015.505
1026  17629.571
1025  18270.887
1024  18258.395
1023  18361.181
1022  18391.509
1021  19073.422
1020  18810.035
1019  19025.063
1018  19183.901
1017  18651.144
1016  18306.506
1015  18280.155
1014  17605.035
1013  17908.025
1012  18251.003
1011  17994.482
1010  18190.606
1009  18543.489
1008  19313.368
1007  20206.297
1006  20901.453
1005  21314.15
1004  21355.268
1003  21906.041
1002  21596.626
1001  21479.682
1000  19838.194
999  18633.658
998  18689.97
997  18559.378
996  18353.428
995  18052.373
994  17259.524
993  16331.022
992  16571.671
991  17288.875
990  17651.198
989  17873.142
988  18217.591
987  19295.976
986  21146.798
985  23390.909
984  25543.829
983  27883.759
982  29503.96
981  29894.744
980  27144.237
979  23738.225
978  20477.141
977  18554.602
976  16824.051
975  15287.174
974  14107.973
973  13369.757
972  12104.993
971  11124.61
970  10077.534
969  8933.0471
968  8597.095
967  8667.0247
966  8491.1024
965  8704.6971
964  8477.601
963  8060.9365
962  8218.6864
961  8348.4993
960  8481.0069
959  8401.4249
958  8223.3047
957  8257.3802
956  8028.709
955  8452.9218
954  8483.731
953  8351.1104
952  8481.3917
951  8507.109
950  8137.1859
949  8446.8702
948  8470.7928
947  8459.4331
946  8240.008
945  8415.7802
944  8170.2751
943  8076.1869
942  8403.6238
941  8533.5714
940  8527.6337
939  8438.2557
938  8445.6147
937  8600.5611
936  8637.6523
935  8621.8223
934  8792.8041
933  8626.4626
932  8869.4755
931  8582.5294
930  8414.4427
929  8724.8455
928  8652.5677
927  8610.7262
926  8634.5143
925  8595.0363
924  8523.368
923  8749.114
922  8643.2452
921  8617.2434
920  8793.0389
919  8806.8957
918  8791.0418
917  9154.9533
916  8945.3627
915  8843.0528
914  9171.5183
913  9449.0466
912  9101.2121
911  8835.1359
910  8939.4246
909  9052.4963
908  8798.0539
907  8824.7182
906  8897.236
905  8684.4369
904  8849.2366
903  8895.3352
902  9054.7856
901  9284.9293
900  9798.4931
899  9849.327
898  9088.0911
897  9504.7461
896  9356.7224
895  9082.7525
894  9440.0391
893  9068.1086
892  9366.5975
891  9424.5644
890  9342.1238
889  9418.1543
888  9667.1249
887  9435.7398
886  9463.8336
885  9422.1376
884  9384.8927
883  9562.7992
882  9397.2519
881  9401.5202
880  9477.9208
879  9527.8906
878  9376.1394
877  9644.4249
876  9563.9203
875  9943.9756
874  9888.7498
873  9898.9989
872  10169.397
871  10010.777
870  10201.297
869  9984.8271
868  9791.5017
867  9452.8063
866  9714.1831
865  10025.421
864  10076.724
863  10088.035
862  10105.959
861  9888.8873
860  9928.8779
859  10222.103
858  9915.1511
857  9764.4306
856  10019.081
855  10313.427
854  10171.565
853  9959.849
852  9714.3148
851  9821.3813
850  10277.231
849  10232.748
848  10291.053
847  9875.6303
846  10221.725
845  10246.018
844  10420.42
843  10379.19
842  10214.857
841  10315.784
840  10492.74
839  10522.46
838  10487.032
837  10621.421
836  10710.763
835  10221.939
834  10596.268
833  10812.464
832  10573.683
831  10454.081
830  10582.689
829  10229.206
828  10673.056
827  10613.391
826  10681.41
825  10581.369
824  10357.467
823  10604.526
822  10778.411
821  10798.888
820  10964.945
819  10368.523
818  10551.978
817  10912.662
816  10442.765
815  10848.322
814  10634.207
813  10595.785
812  10704.967
811  11373.923
810  10849.731
809  10899.362
808  10928.176
807  11388.086
806  11183.641
805  11052.133
804  10823.399
803  11407.839
802  11334.064
801  11623.151
800  11519.761
799  11496.572
798  11407.196
797  11215.669
796  11255.05
795  11321.771
794  11443.776
793  11187.555
792  11467.585
791  11970.209
790  11931.61
789  11810.329
788  11704.24
787  11482.129
786  11698.769
785  12077.67
784  11907.367
783  11565.593
782  11888.751
781  11417.882
780  11468.547
779  11602.888
778  12181.725
777  12021.277
776  12151.881
775  12232.936
774  11763.28
773  11726.487
772  11562.73
771  11975.213
770  11719.707
769  12008.817
768  12582.652
767  12072.141
766  12307.403
765  12480.087
764  12299.624
763  12110.944
762  12362.449
761  12630.668
760  12624.134
759  12739.87
758  12426.052
757  12123.373
756  12432.124
755  13050.899
754  12823.009
753  12341.561
752  12492.835
751  12737.982
750  12464.386
749  12745.668
748  12444.366
747  12670.732
746  13116.851
745  12894.318
744  13062.88
743  12616.619
742  12770.776
741  13122.323
740  13015.52
739  12815.435
738  12664.064
737  12899.745
736  13111.934
735  13591.995
734  13112.315
733  12958.946
732  13067.453
731  13062.6
730  13126.625
729  13128.997
728  13422.372
727  13544.711
726  13176.518
725  13265.751
724  13626.426
723  13384.104
722  13535.712
721  13235.804
720  13504.783
719  13731.749
718  13391.995
717  13467.811
716  13573.483
715  13419.701
714  13924.888
713  13386.199
712  13397.162
711  13606.532
710  13455.285
709  13787.022
708  13981.483
707  13933.553
706  14186.536
705  13904.631
704  13575.091
703  13597.142
702  13882.524
701  14032.134
700  14413.986
699  14089.73
698  14220.013
697  14090.873
696  14475.86
695  13974.955
694  13765.611
693  14249.374
692  14420.27
691  14841.592
690  14780.777
689  14410.399
688  14460.286
687  14760.822
686  14598.344
685  14523.393
684  14381.292
683  14625.526
682  14568.311
681  14882.846
680  14886.998
679  14772.245
678  14768.456
677  14648.122
676  15238.992
675  15331.431
674  15014.545
673  15015.181
672  14618.281
671  15350.971
670  15386.443
669  14826.181
668  14734.93
667  15407.336
666  15472.615
665  15346.222
664  15388.575
663  15324.695
662  15144.525
661  15362.424
660  15187.26
659  15238.321
658  15476.26
657  15852.447
656  15788.98
655  15775.83
654  15293.004
653  15564.273
652  16245.131
651  15961.818
650  15831.316
649  15989.286
648  15590.818
647  15852.894
646  15900.552
645  16089.733
644  16420.596
643  16088.558
642  16105.014
641  15906.814
640  15978.729
639  16396.638
638  16677.372
637  16744.15
636  17005.101
635  16568.606
634  16778.161
633  16779.99
632  16915.409
631  16798.446
630  16885.41
629  16569.02
628  17117.993
627  16917.994
626  16680.098
625  16829.655
624  16743.477
623  16640.735
622  17389.871
621  17318.17
620  17351.934
619  17522.015
618  17477.318
617  17754.955
616  17481.618
615  17270.177
614  17680.215
613  18052.582
612  17782.27
611  17663.79
610  17156.777
609  17855.388
608  17546.754
607  17262.739
606  17577.476
605  18223.735
604  18030.591
603  17968.627
602  18300.912
601  18140.815
600  18645.03
599  18206.728
598  18372.532
597  18378.248
596  18769.945
595  18748.803
594  18321.801
593  18426.325
592  18764.772
591  18459.369
590  18500.968
589  18562.151
588  18997.381
587  19400.157
586  19677.59
585  19510.296
584  19428.875
583  19684.302
582  19179.226
581  19245.907
580  19304.705
579  19312.089
578  18835.534
577  19085.235
576  18654.063
575  19290.916
574  19090.467
573  18869.51
572  18572.463
571  18411.969
570  18821.355
569  18413.005
568  18256.463
567  18002.237
566  18067.132
565  18301.744
564  20043.594
563  20384.097
562  20952.281
561  22027.035
560  22945.832
559  22870.997
558  24067.634
557  24648.936
556  23663.623
555  22015.859
554  21230.611
553  19752.686
552  18444.97
551  17256.155
550  16516.392
549  15970.916
548  15030.867
547  14373.572
546  12917.976
545  11882.632
544  10794.786
543  9901.1555
542  9219.7383
541  9264.1566
540  8543.5934
539  9140.9547
538  10008.904
537  14408.723
536  37844.911
535  106795.19
534  136392.2
533  61008.795
532  16473.105
531  9075.2531
530  7406.2966
529  7203.6497
528  6976.5091
527  6872.3478
526  6771.0969
525  6795.7674
524  6723.6613
523  6600.7996
522  6808.4072
521  6363.7118
520  6494.6418
519  6699.0008
518  6680.2592
517  6734.19
516  6738.5532
515  7094.5785
514  7270.4574
513  6700.0975
512  6675.133
511  6695.3139
510  6950.468
509  6695.9578
508  6831.0965
507  6960.0263
506  6877.8661
505  6804.1165
504  6737.909
503  6934.696
502  6968.1592
501  6943.6015
500  6455.6132
499  6698.8692
498  6590.8532
497  6901.1332
496  6857.9043
495  6581.4259
494  7134.3809
493  6901.0988
492  6590.1095
491  6791.4198
490  7059.6951
489  6892.9789
488  6796.0163
487  6435.5882
486  6587.2974
485  6588.5484
484  6795.7563
483  6983.6347
482  7337.1434
481  7028.4957
480  7133.2147
479  6917.0862
478  6798.5995
477  7040.5953
476  6740.0486
475  6982.6315
474  6876.4311
473  7117.3039
472  7107.6131
471  7250.3581
470  6961.1105
469  6704.5192
468  7168.0836
467  6853.7853
466  7156.922
465  7109.1928
464  7029.9227
463  6870.0303
462  6867.3775
461  6861.7387
460  7052.8432
459  6838.5557
458  7123.5655
457  7249.1306
456  7102.4296
455  6834.0221
454  6823.2405
453  7108.2756
452  7019.6032
451  6954.9744
450  7208.4625
449  7136.1634
448  7263.2084
447  7072.9739
446  7119.9031
445  7217.3637
444  7603.4292
443  7389.4618
442  7346.9848
441  6977.0501
440  6914.6382
439  7453.6292
438  7062.5454
437  7007.511
436  7636.8113
435  7335.2226
434  7274.9638
433  7135.0517
432  6948.0909
431  6976.0283
430  7399.8609
429  7381.5819
428  7254.7314
427  7260.3414
426  7076.2061
425  7238.836
424  7380.103
423  7459.6663
422  7495.6931
421  7420.3321
420  7025.3579
419  7519.6971
418  7412.7293
417  7387.6117
416  7111.5652
415  7137.433
414  7247.278
413  7269.2216
412  7236.1276
411  7291.0574
410  7211.2708
409  7361.0245
408  7371.2394
407  7423.1633
406  7406.36
405  7367.1547
404  7404.6386
403  7496.03
402  7257.2097
401  7614.5889
400  7853.5067
399  7727.6041
398  7546.4845
397  7508.3213
396  7391.3207
395  7537.5067
394  7426.5322
393  7371.5193
392  7445.8352
391  7466.7999
390  7445.4019
389  7130.4153
388  7487.8773
387  7281.6374
386  7483.4949
385  7239.9742
384  7504.9995
383  7455.6875
382  7390.9559
381  7373.8636
380  7378.3412
379  7102.9529
378  7040.2378
377  7360.0471
376  7367.0569
375  7345.4281
374  7244.9822
373  7707.8082
372  7691.6586
371  7618.2449
370  7468.5054
369  7458.9565
368  7687.0936
367  7658.7232
366  7068.8629
365  7409.2447
364  7608.9641
363  7448.2286
362  7558.2334
361  7458.5471
360  7475.1432
359  7454.6575
358  7548.4473
357  7535.3733
356  7732.8702
355  7311.9295
354  7720.8748
353  7936.5728
352  7442.7551
351  7533.1067
350  7907.8491
349  7644.0602
348  7689.0785
347  7629.7638
346  7512.3577
345  7333.0889
344  7641.7492
343  7426.216
342  7427.5369
341  7444.3228
340  7469.0546
339  7120.5015
338  7288.5285
337  6978.3023
336  7455.545
335  7292.5294
334  7455.4327
333  7697.7491
332  7630.6368
331  7320.1933
330  7169.1353
329  7333.5578
328  7365.2439
327  7166.7694
326  7948.2101
325  7571.9482
324  7733.1289
323  7757.7621
322  7648.2001
321  7808.2534
320  7661.8704
319  7735.0029
318  8023.545
317  7815.8085
316  7432.9378
315  7781.9442
314  7607.6469
313  7475.2434
312  7361.5671
311  7524.3251
310  7397.9126
309  7256.6923
308  7737.7717
307  7896.1531
306  7803.3084
305  7561.0605
304  7431.8396
303  7241.8608
302  7249.8029
301  7408.6561
300  7477.9635
299  7392.3548
298  7501.4515
297  7310.1122
296  7561.8186
295  7415.1338
294  7539.4962
293  7636.361
292  7161.6506
291  7369.835
290  7532.769
289  7555.9658
288  7400.3183
287  7414.9586
286  7578.479
285  7578.9852
284  7527.6729
283  7226.2129
282  7567.6296
281  7213.0277
280  7306.4065
279  7255.8248
278  7088.7818
277  7298.0071
276  7320.6975
275  7208.9659
274  7348.7415
273  7349.5142
272  7320.6511
271  7267.8111
270  7462.3279
269  7596.9062
268  7292.6675
267  7230.8098
266  7468.6447
265  7271.1717
264  7299.8741
263  7193.7915
262  7324.5031
261  7436.7556
260  7206.7714
259  7126.7368
258  7142.7358
257  7096.6053
256  7249.763
255  6969.1923
254  6911.114
253  7179.5099
252  7005.3196
251  7199.2485
250  6953.4756
249  7036.43
248  7213.8759
247  7344.9616
246  7679.0431
245  7787.7701
244  8153.077
243  8446.2881
242  7477.0108
241  7274.5802
240  7284.366
239  7162.791
238  7038.8378
237  7128.185
236  6997.7086
235  7221.4335
234  7067.0279
233  6902.9146
232  7047.0467
231  7213.4219
230  7214.887
229  7292.5955
228  6999.7723
227  7291.3884
226  6897.5319
225  6779.4737
224  6650.9043
223  6678.6286
222  6849.5481
221  6830.1126
220  6721.8291
219  6666.0894
218  6753.2816
217  6924.0943
216  6807.1964
215  7039.0782
214  7316.9166
213  6906.7353
212  6992.3187
211  6936.4535
210  6973.2827
209  7001.128
208  7088.3911
207  7140.8446
206  6828.1493
205  6799.8441
204  6968.0074
203  7066.0968
202  7274.5949
201  7252.969
200  6947.1669
199  7087.6751
198  6880.9636
197  7053.3247
196  6881.4726
195  7105.1142
194  6969.0194
193  7094.6077
192  7064.9675
191  6830.9535
190  6867.4936
189  6927.8686
188  6877.9185
187  6852.8929
186  7059.0487
185  6833.4892
184  7481.0777
183  7335.297
182  7360.1669
181  7725.4071
180  7758.9658
179  7957.413
178  7747.7508
177  7606.1309
176  7493.4389
175  7240.7095
174  7309.5853
173  7166.2736
172  6803.3738
171  6699.0322
170  6453.2859
169  6265.3362
168  5927.389
167  5654.5602
166  5587.6778
165  5105.1648
164  5322.909
163  5245.1661
162  5243.8083
161  5381.4044
160  5794.2512
159  7185.8536
158  11438.684
157  20490.943
156  27961.738
155  22737.981
154  12941.782
153  7844.948
152  6089.6136
151  5666.5555
150  5085.397
149  4517.8192
148  4385.1685
147  4270.6238
146  4007.6421
145  3958.4797
144  3885.6128
143  3900.9578
142  3923.5973
141  3798.6335
140  3977.1399
139  3800.0933
138  3655.6733
137  3637.3111
136  3791.6733
135  3796.4923
134  3914.0308
133  4023.0835
132  3790.4754
131  3999.0769
130  4095.9186
129  4219.5221
128  4527.6955
127  4762.4676
126  4485.05
125  4364.9394
124  4042.0142
123  4194.1444
122  4145.9569
121  3535.785
120  3370.9414
119  3128.3655
118  3209.1787
117  2775.9973
116  2450.0562
115  2124.1454
114  2077.0985
113  1824.4742
112  1543.2374
111  1604.9514
110  1600.6617
109  1679.343
108  2202.4975
107  5534.1846
106  17700.086
105  31048.398
104  21838.257
103  7035.8559
102  2139.9998
101  1482.6216
100  1828.7966
99  1725.1983
98  1073.3154
97  867.34835
96  899.8055
95  883.45455
94  865.19964
93  818.82909
92  891.06484
91  1045.3642
90  1014.1558
89  996.90373
88  1174.8494
87  1137.9378
86  1144.8878
85  1087.7408
84  1018.3125
83  927.90813
82  1046.2588
81  1152.2989
80  1094.2243
79  1112.6539
78  896.75345
77  1060.3611
76  1301.0033
75  1080.6711
74  963.54449
73  1012.7025
72  960.72866
71  1071.5397
70  1181.7753
69  1114.5468
68  1139.3222
67  1026.3847
66  1035.5202
65  1000.523
64  1144.575
63  1145.2577
62  1096.4483
61  1068.6768
60  1131.2032
59  1115.4217
58  1033.5502
57  1166.4616
56  1178.7511
55  1228.8479
54  1333.2651
53  1394.4744
52  1404.3539
51  1380.0848
50  1334.6078
49  1468.3042
48  1352.479
47  1241.3942
46  1131.4705
45  1143.9575
44  1133.9367
43  1093.1206
42  936.24593
41  966.17483
40  990.14471
39  951.69836
38  1008.0198
37  994.48868
36  1051.4708
35  970.74827
34  960.42468
33  1197.0683
32  1126.1436
31  1388.941
30  1939.7785
29  2792.3941
28  3847.9584
27  4701.7549
26  4001.7042
25  2370.9636
24  1137.0713
23  592.08537
22  411.11769
21  332.06256
20  249.19115
19  226.54683
18  311.53676
17  649.10602
16  1100.4089
15  1120.847
14  1040.6698
13  998.19497
12  1050.2492
11  1201.8765
10  1201.9049
9  1019.6122
8  940.31837
7  544.38331
6  238.8471
5  190.83643
4  122.10794
3  76.081069
2  30.202285
1  17.749905
0  15.0411