# Region:            O1s (23)
# Acquisition Date:  11/08/19 18:38:43 UTC
# Analysis Method:   XPS
# Analyzer:          Phoibos
# Analyzer Lens:     MediumArea:1.5kV
# Analyzer Slit:     4:3x20\B:open
# Scan Mode:         FixedAnalyzerTransmission
# Curves/Scan:       1
# Values/Curve:      211
# Dwell Time:        0.1
# Excitation Energy: 1486.71
# Binding Energy:    541
# Pass Energy:       10
# Bias Voltage:      90
# Detector Voltage:  1900
# Eff. Workfunction: 4.395
# Source:            Focus
# Comment:           15 grados
#
# Cycle: 0
# Number of Scans: 8
#
# Cycle: 0, Curve: 0
# Acquisition Date: 11/08/19 18:38:43 UTC
#
# ColumnLabels: energy counts/s
#
541  508.13875
540.9  519.62338
540.8  497.84593
540.7  489.41935
540.6  493.39892
540.5  470.82799
540.4  491.52189
540.3  512.15154
540.2  493.8722
540.1  498.23269
540  484.89504
539.9  457.58194
539.8  461.72891
539.7  471.79347
539.6  470.13362
539.5  489.59496
539.4  481.3422
539.3  494.82439
539.2  455.40511
539.1  472.87273
539  463.21203
538.9  486.00852
538.8  457.6942
538.7  453.5562
538.6  492.68659
538.5  458.47454
538.4  450.37218
538.3  460.27524
538.2  481.61293
538.1  453.98565
538  458.3465
537.9  499.75271
537.8  490.26803
537.7  518.03709
537.6  491.02207
537.5  472.00755
537.4  461.81774
537.3  485.01456
537.2  498.2627
537.1  507.23059
537  535.07805
536.9  534.46546
536.8  497.29837
536.7  568.09891
536.6  575.58996
536.5  582.88314
536.4  681.34731
536.3  728.09393
536.2  828.616
536.1  929.62762
536  1033.5467
535.9  1237.7225
535.8  1481.1926
535.7  1694.5155
535.6  1998.6327
535.5  2410.4738
535.4  2863.4211
535.3  3327.4211
535.2  3800.3823
535.1  4480.4848
535  5176.1387
534.9  6080.7707
534.8  6868.3632
534.7  7502.3702
534.6  8166.1544
534.5  8895.9746
534.4  9352.8592
534.3  9557.7564
534.2  9644.1755
534.1  9602.6297
534  9423.3582
533.9  8945.3599
533.8  8372.4367
533.7  7810.6604
533.6  6993.2791
533.5  6217.7813
533.4  5390.1311
533.3  4552.8119
533.2  3931.3866
533.1  3325.1358
533  2784.6157
532.9  2260.2268
532.8  1906.3984
532.7  1587.4502
532.6  1334.5452
532.5  1127.5663
532.4  973.71576
532.3  844.43785
532.2  742.13586
532.1  764.66512
532  736.34391
531.9  638.82497
531.8  624.58122
531.7  572.30873
531.6  557.37344
531.5  569.28665
531.4  538.47821
531.3  516.72701
531.2  501.84437
531.1  500.59389
531  478.77151
530.9  468.2491
530.8  450.00136
530.7  473.53243
530.6  453.82198
530.5  456.55195
530.4  445.76838
530.3  412.3363
530.2  373.71428
530.1  438.63977
530  430.68166
529.9  412.8769
529.8  424.94956
529.7  427.0812
529.6  431.22107
529.5  396.27943
529.4  390.01911
529.3  433.74844
529.2  450.79212
529.1  402.60492
529  434.71721
528.9  403.94335
528.8  407.31393
528.7  409.72245
528.6  389.68553
528.5  382.86925
528.4  392.4353
528.3  387.67407
528.2  361.79004
528.1  392.62144
528  393.65121
527.9  353.22593
527.8  348.19376
527.7  379.83611
527.6  375.5494
527.5  371.39099
527.4  375.13153
527.3  346.16007
527.2  358.96102
527.1  359.68808
527  397.78589
526.9  384.57459
526.8  371.27832
526.7  380.94114
526.6  364.67683
526.5  378.06463
526.4  368.36916
526.3  381.82397
526.2  427.65543
526.1  359.42754
526  364.68067
525.9  388.36426
525.8  398.41952
525.7  375.5268
525.6  423.91073
525.5  397.87139
525.4  378.64865
525.3  360.96479
525.2  391.73042
525.1  365.80436
525  394.27142
524.9  370.93093
524.8  380.51957
524.7  377.77843
524.6  405.45771
524.5  396.70688
524.4  389.24018
524.3  381.72701
524.2  395.81111
524.1  403.80952
524  411.97202
523.9  389.00079
523.8  362.9803
523.7  371.50206
523.6  367.77516
523.5  349.43026
523.4  355.46505
523.3  367.89131
523.2  375.14833
523.1  389.54315
523  346.6721
522.9  365.04275
522.8  367.30771
522.7  352.81164
522.6  369.14243
522.5  371.924
522.4  405.64302
522.3  375.34123
522.2  360.5978
522.1  386.1974
522  409.75287
521.9  368.41788
521.8  373.15703
521.7  414.05704
521.6  413.04889
521.5  380.45582
521.4  345.65903
521.3  363.82813
521.2  397.72772
521.1  413.87199
521  421.78851
520.9  393.7971
520.8  400.02379
520.7  362.0241
520.6  353.33358
520.5  358.11927
520.4  391.16856
520.3  397.58271
520.2  374.00202
520.1  391.72424
520  417.70119