# Region:            O1s (35)
# Acquisition Date:  11/08/19 23:43:06 UTC
# Analysis Method:   XPS
# Analyzer:          Phoibos
# Analyzer Lens:     MediumArea:1.5kV
# Analyzer Slit:     4:3x20\B:open
# Scan Mode:         FixedAnalyzerTransmission
# Curves/Scan:       1
# Values/Curve:      211
# Dwell Time:        0.1
# Excitation Energy: 1486.71
# Binding Energy:    541
# Pass Energy:       10
# Bias Voltage:      90
# Detector Voltage:  1900
# Eff. Workfunction: 4.395
# Source:            Focus
# Comment:           
#
# Cycle: 0
# Number of Scans: 8
#
# Cycle: 0, Curve: 0
# Acquisition Date: 11/08/19 23:43:06 UTC
#
# ColumnLabels: energy counts/s
#
541  734.08722
540.9  730.13966
540.8  721.07454
540.7  680.56029
540.6  674.46168
540.5  718.24514
540.4  718.81159
540.3  687.93539
540.2  703.14824
540.1  677.29926
540  692.10564
539.9  770.39637
539.8  744.90176
539.7  668.12434
539.6  698.27211
539.5  646.79063
539.4  671.04799
539.3  685.01722
539.2  657.95828
539.1  691.51469
539  669.07698
538.9  700.13765
538.8  715.25928
538.7  692.43213
538.6  658.04704
538.5  691.63658
538.4  679.76158
538.3  673.42652
538.2  693.16376
538.1  654.97584
538  744.89434
537.9  688.63879
537.8  654.79036
537.7  689.62148
537.6  688.20472
537.5  632.16252
537.4  727.03855
537.3  686.60209
537.2  658.14575
537.1  666.53024
537  677.04816
536.9  671.57244
536.8  668.48985
536.7  673.30041
536.6  645.67537
536.5  661.91448
536.4  641.76794
536.3  637.2846
536.2  670.16262
536.1  647.18099
536  648.51438
535.9  639.1415
535.8  646.22636
535.7  649.23671
535.6  648.7902
535.5  675.22735
535.4  688.78826
535.3  698.33452
535.2  721.24387
535.1  746.43306
535  787.90739
534.9  848.32019
534.8  902.0255
534.7  1009.1349
534.6  1150.582
534.5  1309.4581
534.4  1517.8758
534.3  1747.4704
534.2  2088.9809
534.1  2447.3832
534  2806.6104
533.9  3318.9823
533.8  3833.7118
533.7  4400.204
533.6  5070.5406
533.5  5903.0394
533.4  6448.6947
533.3  7033.3666
533.2  7368.1787
533.1  7864.901
533  8104.1226
532.9  8216.2752
532.8  8083.956
532.7  7641.5422
532.6  7267.0464
532.5  6818.9562
532.4  6286.9421
532.3  5553.8556
532.2  5018.161
532.1  4400.5452
532  3820.5481
531.9  3292.1954
531.8  2825.5898
531.7  2426.6028
531.6  2105.3478
531.5  1840.4345
531.4  1629.3096
531.3  1417.7336
531.2  1213.2262
531.1  1058.9807
531  937.0288
530.9  874.54594
530.8  777.60057
530.7  747.33675
530.6  735.55038
530.5  644.45127
530.4  638.51365
530.3  616.19434
530.2  579.23473
530.1  566.00388
530  570.85296
529.9  590.86428
529.8  592.0705
529.7  537.70268
529.6  549.38549
529.5  546.91479
529.4  535.31511
529.3  511.4242
529.2  506.24043
529.1  508.75452
529  508.80296
528.9  493.70734
528.8  524.78846
528.7  488.64029
528.6  495.08384
528.5  516.43339
528.4  529.4385
528.3  516.89386
528.2  518.09715
528.1  483.95486
528  547.279
527.9  567.29272
527.8  506.65016
527.7  500.72657
527.6  478.77125
527.5  513.6459
527.4  494.43614
527.3  481.06403
527.2  501.53917
527.1  468.86538
527  470.95227
526.9  514.75529
526.8  504.38326
526.7  529.83594
526.6  515.11891
526.5  544.53203
526.4  505.8082
526.3  506.12432
526.2  511.53103
526.1  511.41682
526  510.13123
525.9  499.171
525.8  494.80069
525.7  472.68817
525.6  525.34756
525.5  513.92827
525.4  508.60395
525.3  493.45194
525.2  475.99812
525.1  509.43719
525  461.08227
524.9  482.70011
524.8  491.60985
524.7  490.24148
524.6  465.96883
524.5  468.32695
524.4  489.83347
524.3  499.87883
524.2  474.47136
524.1  465.83689
524  510.96918
523.9  519.07538
523.8  520.36764
523.7  505.6812
523.6  468.54956
523.5  475.60811
523.4  483.68585
523.3  488.07045
523.2  508.01321
523.1  527.70649
523  518.09689
522.9  492.65466
522.8  486.38949
522.7  534.85819
522.6  525.3785
522.5  515.47749
522.4  519.52311
522.3  522.103
522.2  518.30944
522.1  464.03369
522  480.97341
521.9  513.32352
521.8  533.45504
521.7  520.45868
521.6  505.74034
521.5  466.95316
521.4  466.62277
521.3  475.49571
521.2  478.35003
521.1  497.20336
521  507.73812
520.9  538.8436
520.8  516.38176
520.7  463.85085
520.6  511.34331
520.5  455.65204
520.4  497.16179
520.3  471.59399
520.2  487.76985
520.1  484.31613
520  486.5154