# Region:            C1s  (2)
# Acquisition Date:  11/07/19 19:17:11 UTC
# Analysis Method:   XPS
# Analyzer:          Phoibos
# Analyzer Lens:     MediumArea:1.5kV
# Analyzer Slit:     4:3x20\B:open
# Scan Mode:         FixedAnalyzerTransmission
# Curves/Scan:       1
# Values/Curve:      151
# Dwell Time:        0.1
# Excitation Energy: 1486.71
# Binding Energy:    295
# Pass Energy:       10
# Bias Voltage:      90
# Detector Voltage:  1900
# Eff. Workfunction: 4.395
# Source:            Focus
# Comment:           
#
# Cycle: 0
# Number of Scans: 10
#
# Cycle: 0, Curve: 0
# Acquisition Date: 11/07/19 19:17:11 UTC
#
# ColumnLabels: energy counts/s
#
295  348.35288
294.9  367.63723
294.8  358.76951
294.7  342.89849
294.6  344.13524
294.5  336.06104
294.4  363.00212
294.3  334.20977
294.2  326.57786
294.1  362.50908
294  350.02053
293.9  359.84632
293.8  340.13424
293.7  349.87197
293.6  335.95048
293.5  350.33185
293.4  366.4638
293.3  345.78197
293.2  356.9662
293.1  368.44405
293  362.49593
292.9  384.37541
292.8  361.37963
292.7  335.4331
292.6  351.91675
292.5  389.8474
292.4  374.58792
292.3  352.53769
292.2  373.89295
292.1  373.49557
292  377.98172
291.9  343.95381
291.8  352.25308
291.7  325.25681
291.6  333.15538
291.5  353.76464
291.4  334.50453
291.3  337.15963
291.2  327.70896
291.1  358.6925
291  366.04131
290.9  356.91158
290.8  364.14952
290.7  361.2206
290.6  343.80875
290.5  367.60795
290.4  364.26407
290.3  364.14907
290.2  381.23727
290.1  334.70207
290  371.14608
289.9  358.45016
289.8  357.84705
289.7  347.29356
289.6  342.3122
289.5  359.93015
289.4  335.194
289.3  359.58116
289.2  380.21146
289.1  381.15543
289  368.35659
288.9  391.66361
288.8  379.16359
288.7  357.84183
288.6  348.53321
288.5  392.25505
288.4  367.00112
288.3  358.31223
288.2  359.00286
288.1  329.35784
288  313.89304
287.9  341.81144
287.8  331.84657
287.7  345.62805
287.6  380.53509
287.5  367.76896
287.4  376.20874
287.3  366.05578
287.2  373.64638
287.1  363.54579
287  391.67755
286.9  372.52325
286.8  406.19182
286.7  394.85505
286.6  406.00761
286.5  403.57103
286.4  390.56976
286.3  393.00631
286.2  386.08483
286.1  368.61811
286  371.6156
285.9  394.97086
285.8  391.11354
285.7  398.95369
285.6  394.23766
285.5  383.63708
285.4  403.76192
285.3  365.97831
285.2  389.29271
285.1  393.09566
285  392.02085
284.9  372.66839
284.8  385.74964
284.7  358.34158
284.6  366.64921
284.5  363.15603
284.4  352.89192
284.3  354.20374
284.2  341.52558
284.1  372.69286
284  355.00921
283.9  354.00222
283.8  354.10998
283.7  358.61723
283.6  360.25009
283.5  340.17815
283.4  360.53372
283.3  347.12562
283.2  366.95174
283.1  354.17382
283  363.33395
282.9  338.49672
282.8  383.01084
282.7  352.10653
282.6  364.89758
282.5  361.9143
282.4  349.23318
282.3  328.2621
282.2  324.95426
282.1  313.49113
282  328.7928
281.9  353.78033
281.8  331.73468
281.7  341.32681
281.6  361.79216
281.5  358.94822
281.4  349.81127
281.3  382.58597
281.2  336.50269
281.1  320.06561
281  344.66582
280.9  340.76815
280.8  341.38497
280.7  342.79401
280.6  347.08496
280.5  308.14868
280.4  336.02147
280.3  326.9983
280.2  333.54538
280.1  323.63391
280  347.68924