# Region:            C1s
# Acquisition Date:  11/07/19 20:42:50 UTC
# Analysis Method:   XPS
# Analyzer:          Phoibos
# Analyzer Lens:     MediumArea:1.5kV
# Analyzer Slit:     4:3x20\B:open
# Scan Mode:         FixedAnalyzerTransmission
# Curves/Scan:       1
# Values/Curve:      151
# Dwell Time:        0.1
# Excitation Energy: 1486.71
# Binding Energy:    295
# Pass Energy:       10
# Bias Voltage:      90
# Detector Voltage:  1900
# Eff. Workfunction: 4.395
# Source:            Focus
# Comment:           
#
# Cycle: 0
# Number of Scans: 10
#
# Cycle: 0, Curve: 0
# Acquisition Date: 11/07/19 20:42:50 UTC
#
# ColumnLabels: energy counts/s
#
295  341.09998
294.9  343.91872
294.8  364.4812
294.7  354.02928
294.6  353.15594
294.5  337.69315
294.4  377.30248
294.3  368.40747
294.2  360.29447
294.1  352.67211
294  346.95939
293.9  379.718
293.8  365.25909
293.7  359.92819
293.6  398.73095
293.5  392.752
293.4  353.08901
293.3  372.0132
293.2  360.77825
293.1  365.69026
293  341.8355
292.9  344.07062
292.8  363.10298
292.7  355.45049
292.6  377.2004
292.5  381.44757
292.4  370.86335
292.3  377.1333
292.2  384.83017
292.1  366.69905
292  360.842
291.9  381.01638
291.8  375.86539
291.7  361.59762
291.6  349.84673
291.5  344.142
291.4  359.6792
291.3  385.52254
291.2  360.22258
291.1  318.86098
291  357.80334
290.9  344.57572
290.8  389.70036
290.7  378.86307
290.6  339.92691
290.5  330.95696
290.4  367.94367
290.3  378.0974
290.2  391.73372
290.1  357.89758
290  374.54161
289.9  358.28724
289.8  323.17689
289.7  366.65764
289.6  384.63753
289.5  358.09904
289.4  375.24753
289.3  361.80333
289.2  343.91917
289.1  348.39762
289  367.85418
288.9  358.18439
288.8  361.10915
288.7  353.23265
288.6  345.12948
288.5  367.78146
288.4  363.4531
288.3  390.50692
288.2  374.96668
288.1  388.45002
288  356.30019
287.9  356.29248
287.8  362.93012
287.7  355.5522
287.6  380.16875
287.5  391.46922
287.4  405.59885
287.3  361.23287
287.2  347.85483
287.1  342.03992
287  345.10068
286.9  369.61615
286.8  362.60672
286.7  364.75988
286.6  362.09934
286.5  380.56237
286.4  400.00251
286.3  372.22009
286.2  383.6164
286.1  381.88117
286  388.33795
285.9  387.46643
285.8  384.87513
285.7  366.61408
285.6  364.36228
285.5  378.66872
285.4  370.48655
285.3  360.33884
285.2  361.923
285.1  365.03652
285  374.44576
284.9  381.61092
284.8  366.3046
284.7  357.5353
284.6  365.4119
284.5  384.95617
284.4  386.28703
284.3  341.52191
284.2  327.67241
284.1  359.25521
284  360.07164
283.9  343.14273
283.8  355.18629
283.7  376.88014
283.6  369.75017
283.5  355.45945
283.4  346.33295
283.3  368.57254
283.2  364.56413
283.1  367.32227
283  354.71914
282.9  328.29608
282.8  341.73218
282.7  340.43808
282.6  344.33457
282.5  351.41477
282.4  344.0576
282.3  352.0346
282.2  352.35943
282.1  365.61871
282  347.53701
281.9  365.37981
281.8  326.35804
281.7  352.21558
281.6  369.8705
281.5  357.74095
281.4  350.18874
281.3  360.77069
281.2  345.30881
281.1  375.34198
281  346.21358
280.9  357.77762
280.8  359.63947
280.7  317.55213
280.6  333.27125
280.5  352.18099
280.4  361.26931
280.3  359.56525
280.2  380.46318
280.1  347.81871
280  345.22491