# Region:            O1s (29)
# Acquisition Date:  11/08/19 21:33:14 UTC
# Analysis Method:   XPS
# Analyzer:          Phoibos
# Analyzer Lens:     MediumArea:1.5kV
# Analyzer Slit:     4:3x20\B:open
# Scan Mode:         FixedAnalyzerTransmission
# Curves/Scan:       1
# Values/Curve:      211
# Dwell Time:        0.1
# Excitation Energy: 1486.71
# Binding Energy:    541
# Pass Energy:       10
# Bias Voltage:      90
# Detector Voltage:  1900
# Eff. Workfunction: 4.395
# Source:            Focus
# Comment:           5 grados
#
# Cycle: 0
# Number of Scans: 8
#
# Cycle: 0, Curve: 0
# Acquisition Date: 11/08/19 21:33:14 UTC
#
# ColumnLabels: energy counts/s
#
541  666.56998
540.9  666.80705
540.8  679.59728
540.7  671.98539
540.6  628.30945
540.5  631.32056
540.4  663.20094
540.3  627.53167
540.2  640.47452
540.1  648.01918
540  609.28299
539.9  612.66845
539.8  585.48906
539.7  631.00036
539.6  659.42822
539.5  609.37764
539.4  639.98637
539.3  599.78043
539.2  593.25179
539.1  559.07346
539  609.35902
538.9  604.14569
538.8  590.04909
538.7  589.88545
538.6  608.39643
538.5  601.33186
538.4  616.04732
538.3  588.17998
538.2  573.11625
538.1  603.96998
538  590.23067
537.9  598.97014
537.8  570.54856
537.7  573.7002
537.6  585.72841
537.5  600.3625
537.4  595.92164
537.3  554.91603
537.2  576.72979
537.1  582.99128
537  617.9725
536.9  624.48115
536.8  580.13086
536.7  553.67655
536.6  582.74645
536.5  627.48996
536.4  629.76931
536.3  601.11915
536.2  660.48623
536.1  671.0655
536  689.26228
535.9  794.39812
535.8  816.08946
535.7  921.85754
535.6  1013.9716
535.5  1082.1334
535.4  1258.5212
535.3  1507.2511
535.2  1661.8088
535.1  2019.2926
535  2430.9799
534.9  2707.3691
534.8  3387.996
534.7  3997.3095
534.6  4793.2975
534.5  5603.0266
534.4  6407.9138
534.3  7280.3786
534.2  8255.2619
534.1  9065.9027
534  9794.0238
533.9  10077.722
533.8  10638.208
533.7  10995.883
533.6  11081.014
533.5  10789.633
533.4  10135.791
533.3  9391.08
533.2  8676.214
533.1  7691.3733
533  6787.8197
532.9  5744.832
532.8  5023.8518
532.7  4132.3732
532.6  3508.2995
532.5  2883.7037
532.4  2386.5183
532.3  1928.161
532.2  1634.6099
532.1  1426.5541
532  1226.2548
531.9  1070.6218
531.8  1005.0627
531.7  886.94837
531.6  857.42333
531.5  824.69744
531.4  765.40348
531.3  749.56461
531.2  737.13069
531.1  683.14832
531  647.44617
530.9  628.51786
530.8  614.42542
530.7  591.94123
530.6  585.14999
530.5  606.77198
530.4  581.43195
530.3  550.99238
530.2  523.80261
530.1  490.55538
530  542.31274
529.9  501.01311
529.8  507.61483
529.7  532.00251
529.6  478.08866
529.5  517.72522
529.4  550.93022
529.3  524.62534
529.2  502.19844
529.1  480.48331
529  461.94986
528.9  506.2369
528.8  483.95431
528.7  504.12186
528.6  514.94907
528.5  494.77963
528.4  496.24243
528.3  523.22619
528.2  462.51149
528.1  496.25639
528  505.70707
527.9  443.89056
527.8  450.54704
527.7  511.51535
527.6  485.86045
527.5  494.60623
527.4  500.55765
527.3  475.25028
527.2  483.61732
527.1  449.79549
527  515.08745
526.9  498.63515
526.8  468.81272
526.7  483.97568
526.6  495.31046
526.5  497.49363
526.4  502.02522
526.3  502.46585
526.2  483.20022
526.1  451.42366
526  472.6849
525.9  466.98828
525.8  483.31968
525.7  459.68578
525.6  470.51156
525.5  475.79701
525.4  470.34119
525.3  471.29897
525.2  464.77338
525.1  523.0725
525  481.11911
524.9  464.59696
524.8  472.18654
524.7  481.84939
524.6  481.29769
524.5  464.25658
524.4  438.92408
524.3  434.17583
524.2  476.20062
524.1  496.72864
524  506.68073
523.9  492.72434
523.8  477.41498
523.7  544.18361
523.6  488.9321
523.5  462.74396
523.4  462.38945
523.3  499.56232
523.2  481.69383
523.1  433.65041
523  463.01422
522.9  489.2298
522.8  435.23942
522.7  501.82715
522.6  461.15628
522.5  441.23327
522.4  465.20789
522.3  468.17472
522.2  482.87537
522.1  487.83408
522  469.42925
521.9  423.33862
521.8  471.49022
521.7  473.98246
521.6  458.55092
521.5  455.3008
521.4  493.65078
521.3  454.85859
521.2  485.58999
521.1  482.39518
521  446.18356
520.9  441.21722
520.8  469.57593
520.7  469.57487
520.6  455.7963
520.5  445.04819
520.4  483.37078
520.3  481.09438
520.2  482.32949
520.1  458.16567
520  485.96901