# Region:            O1s (33)
# Acquisition Date:  11/08/19 22:33:48 UTC
# Analysis Method:   XPS
# Analyzer:          Phoibos
# Analyzer Lens:     MediumArea:1.5kV
# Analyzer Slit:     4:3x20\B:open
# Scan Mode:         FixedAnalyzerTransmission
# Curves/Scan:       1
# Values/Curve:      211
# Dwell Time:        0.1
# Excitation Energy: 1486.71
# Binding Energy:    541
# Pass Energy:       10
# Bias Voltage:      90
# Detector Voltage:  1900
# Eff. Workfunction: 4.395
# Source:            Focus
# Comment:           45 grados
#
# Cycle: 0
# Number of Scans: 8
#
# Cycle: 0, Curve: 0
# Acquisition Date: 11/08/19 22:33:48 UTC
#
# ColumnLabels: energy counts/s
#
541  425.12248
540.9  431.37979
540.8  383.54468
540.7  422.3204
540.6  401.67038
540.5  388.1824
540.4  388.12765
540.3  410.87317
540.2  417.79946
540.1  450.14549
540  413.46834
539.9  419.45696
539.8  406.62283
539.7  411.40307
539.6  420.34488
539.5  401.9449
539.4  397.97878
539.3  364.36321
539.2  396.07919
539.1  387.99549
539  364.29348
538.9  392.51397
538.8  415.64309
538.7  361.5831
538.6  372.02322
538.5  339.68811
538.4  344.09306
538.3  349.02764
538.2  342.56386
538.1  364.63987
538  377.45661
537.9  346.93108
537.8  364.39308
537.7  338.57865
537.6  373.87107
537.5  329.35789
537.4  338.64102
537.3  376.17192
537.2  364.39959
537.1  368.68005
537  385.33457
536.9  394.35909
536.8  338.42798
536.7  383.92059
536.6  389.65421
536.5  393.44912
536.4  359.05167
536.3  407.23391
536.2  450.4409
536.1  470.31447
536  461.14179
535.9  476.00489
535.8  485.33055
535.7  534.63623
535.6  591.90056
535.5  655.1528
535.4  762.98781
535.3  852.06078
535.2  956.95371
535.1  1135.3751
535  1368.4163
534.9  1707.7656
534.8  1931.5234
534.7  2398.3021
534.6  2766.904
534.5  3311.2583
534.4  3863.3712
534.3  4336.8693
534.2  4952.9816
534.1  5466.4142
534  6140.9422
533.9  6429.7717
533.8  6853.0093
533.7  7186.1731
533.6  7139.5801
533.5  7013.6566
533.4  6775.1782
533.3  6495.7265
533.2  6064.9607
533.1  5384.4806
533  4738.0272
532.9  4110.7708
532.8  3468.7789
532.7  2868.0293
532.6  2421.2238
532.5  1971.0192
532.4  1663.5554
532.3  1300.3455
532.2  1118.5742
532.1  940.9534
532  823.19926
531.9  717.35332
531.8  617.62014
531.7  563.24119
531.6  488.67543
531.5  493.383
531.4  496.36167
531.3  456.23982
531.2  435.12039
531.1  383.9651
531  372.68514
530.9  381.15078
530.8  357.65049
530.7  348.46283
530.6  342.09129
530.5  384.34398
530.4  332.27738
530.3  335.92312
530.2  349.31035
530.1  338.60841
530  317.02279
529.9  317.10138
529.8  303.64008
529.7  335.55764
529.6  330.52209
529.5  329.05055
529.4  291.64069
529.3  304.24133
529.2  371.19451
529.1  330.50532
529  307.02642
528.9  314.20596
528.8  312.76041
528.7  294.81457
528.6  260.72875
528.5  273.72641
528.4  285.98046
528.3  312.41365
528.2  283.65003
528.1  293.28917
528  310.63462
527.9  288.36507
527.8  276.37195
527.7  312.74649
527.6  292.50359
527.5  286.9749
527.4  278.09034
527.3  277.50584
527.2  278.96652
527.1  270.01536
527  268.79836
526.9  308.7364
526.8  300.78199
526.7  305.16928
526.6  304.6791
526.5  282.22212
526.4  276.71484
526.3  284.04677
526.2  287.89954
526.1  285.25833
526  293.79276
525.9  277.33264
525.8  320.1527
525.7  301.3543
525.6  272.12431
525.5  272.82909
525.4  293.67959
525.3  270.05933
525.2  288.32502
525.1  285.6166
525  286.58918
524.9  265.49108
524.8  271.14268
524.7  288.96906
524.6  270.6821
524.5  301.48614
524.4  284.60198
524.3  251.25863
524.2  282.84564
524.1  271.18368
524  278.57044
523.9  278.54107
523.8  291.97967
523.7  288.11905
523.6  289.27093
523.5  321.25817
523.4  313.20636
523.3  284.75103
523.2  303.97192
523.1  255.9392
523  298.44627
522.9  294.25633
522.8  310.11964
522.7  288.4407
522.6  294.70642
522.5  287.9028
522.4  260.27499
522.3  255.27281
522.2  279.60653
522.1  276.59524
522  248.03421
521.9  284.26251
521.8  271.87016
521.7  301.68779
521.6  301.34418
521.5  292.13893
521.4  297.07987
521.3  287.19725
521.2  294.04703
521.1  297.68597
521  259.01692
520.9  296.65551
520.8  300.99234
520.7  280.05793
520.6  295.00568
520.5  256.00883
520.4  262.11397
520.3  295.04028
520.2  299.17775
520.1  293.79842
520  293.28646