# Region:            O1s (31)
# Acquisition Date:  11/08/19 22:02:58 UTC
# Analysis Method:   XPS
# Analyzer:          Phoibos
# Analyzer Lens:     MediumArea:1.5kV
# Analyzer Slit:     4:3x20\B:open
# Scan Mode:         FixedAnalyzerTransmission
# Curves/Scan:       1
# Values/Curve:      211
# Dwell Time:        0.1
# Excitation Energy: 1486.71
# Binding Energy:    541
# Pass Energy:       10
# Bias Voltage:      90
# Detector Voltage:  1900
# Eff. Workfunction: 4.395
# Source:            Focus
# Comment:           25 grados
#
# Cycle: 0
# Number of Scans: 8
#
# Cycle: 0, Curve: 0
# Acquisition Date: 11/08/19 22:02:58 UTC
#
# ColumnLabels: energy counts/s
#
541  553.45447
540.9  566.14754
540.8  546.40267
540.7  528.34869
540.6  540.03604
540.5  478.61542
540.4  494.5866
540.3  497.94286
540.2  515.39243
540.1  478.05453
540  453.3618
539.9  497.51214
539.8  483.77616
539.7  490.05443
539.6  486.45654
539.5  539.2264
539.4  493.33477
539.3  494.92868
539.2  521.80385
539.1  486.49748
539  524.78318
538.9  471.49753
538.8  472.15078
538.7  447.42561
538.6  436.47016
538.5  498.53587
538.4  506.64624
538.3  480.34751
538.2  474.19281
538.1  501.062
538  481.42626
537.9  473.00077
537.8  467.82415
537.7  469.66566
537.6  456.61292
537.5  522.27247
537.4  452.14585
537.3  459.89313
537.2  456.85007
537.1  469.62055
537  474.51784
536.9  481.15526
536.8  464.03891
536.7  471.77396
536.6  497.34082
536.5  510.95674
536.4  515.26227
536.3  532.82579
536.2  510.98334
536.1  560.86633
536  639.27423
535.9  596.9083
535.8  683.21639
535.7  760.27366
535.6  864.3878
535.5  951.23611
535.4  1044.4451
535.3  1198.6351
535.2  1506.9501
535.1  1799.1401
535  2108.5966
534.9  2470.8459
534.8  2933.9117
534.7  3459.9815
534.6  4023.5002
534.5  4804.114
534.4  5528.3112
534.3  6184.9106
534.2  6913.4816
534.1  7527.2186
534  8052.2001
533.9  8646.1334
533.8  8787.1678
533.7  8941.8993
533.6  8768.3133
533.5  8521.1901
533.4  7929.0783
533.3  7305.5479
533.2  6677.7002
533.1  5772.8276
533  5130.22
532.9  4439.323
532.8  3661.8695
532.7  3026.7872
532.6  2540.3675
532.5  2087.3972
532.4  1747.4698
532.3  1469.2295
532.2  1164.6992
532.1  997.76216
532  923.60835
531.9  821.03601
531.8  754.87145
531.7  729.69664
531.6  648.45867
531.5  627.97857
531.4  611.04799
531.3  538.76006
531.2  477.59331
531.1  482.53003
531  472.75057
530.9  498.71659
530.8  451.21019
530.7  450.05876
530.6  435.74003
530.5  432.77247
530.4  397.78634
530.3  416.45175
530.2  420.96819
530.1  427.37147
530  381.11836
529.9  404.33843
529.8  413.63576
529.7  402.44467
529.6  403.20097
529.5  376.26535
529.4  382.48588
529.3  386.00909
529.2  399.52951
529.1  378.45246
529  368.67339
528.9  400.96398
528.8  399.00325
528.7  363.9096
528.6  367.18589
528.5  363.3301
528.4  346.88446
528.3  391.34656
528.2  386.74341
528.1  370.16977
528  365.64396
527.9  358.54027
527.8  392.71555
527.7  418.94575
527.6  369.18357
527.5  393.66145
527.4  372.60594
527.3  380.93512
527.2  361.34075
527.1  389.54171
527  363.28132
526.9  392.44701
526.8  393.15662
526.7  413.76652
526.6  409.84404
526.5  399.20101
526.4  370.30838
526.3  366.44803
526.2  387.57661
526.1  375.94458
526  402.19948
525.9  373.94623
525.8  370.51883
525.7  388.3696
525.6  386.15899
525.5  380.51193
525.4  358.35979
525.3  378.74463
525.2  405.12533
525.1  357.64975
525  359.78874
524.9  368.14223
524.8  376.15814
524.7  398.01046
524.6  371.11612
524.5  355.36963
524.4  386.80685
524.3  364.79495
524.2  355.53007
524.1  380.80227
524  375.6625
523.9  349.74552
523.8  395.77199
523.7  383.43656
523.6  366.43392
523.5  363.7975
523.4  383.85134
523.3  352.85758
523.2  391.96241
523.1  375.92659
523  353.48502
522.9  325.84594
522.8  357.65348
522.7  394.45075
522.6  407.10525
522.5  410.69986
522.4  401.63951
522.3  396.26413
522.2  347.47126
522.1  371.39427
522  340.97949
521.9  341.45267
521.8  387.57915
521.7  391.56761
521.6  373.60864
521.5  330.34579
521.4  384.6224
521.3  382.80317
521.2  379.72564
521.1  362.21151
521  360.45248
520.9  324.4022
520.8  406.81013
520.7  363.51799
520.6  371.1271
520.5  380.29943
520.4  367.71111
520.3  364.94876
520.2  362.97568
520.1  358.39019
520  357.67812