# Region:            O1s (32)
# Acquisition Date:  11/08/19 22:18:05 UTC
# Analysis Method:   XPS
# Analyzer:          Phoibos
# Analyzer Lens:     MediumArea:1.5kV
# Analyzer Slit:     4:3x20\B:open
# Scan Mode:         FixedAnalyzerTransmission
# Curves/Scan:       1
# Values/Curve:      211
# Dwell Time:        0.1
# Excitation Energy: 1486.71
# Binding Energy:    541
# Pass Energy:       10
# Bias Voltage:      90
# Detector Voltage:  1900
# Eff. Workfunction: 4.395
# Source:            Focus
# Comment:           35 grados
#
# Cycle: 0
# Number of Scans: 8
#
# Cycle: 0, Curve: 0
# Acquisition Date: 11/08/19 22:18:05 UTC
#
# ColumnLabels: energy counts/s
#
541  481.6963
540.9  481.21185
540.8  466.1972
540.7  490.19303
540.6  504.55045
540.5  457.8898
540.4  483.66812
540.3  478.46678
540.2  459.53948
540.1  423.5484
540  434.36948
539.9  486.45343
539.8  438.81489
539.7  439.74753
539.6  469.54236
539.5  464.55188
539.4  419.52847
539.3  415.76158
539.2  430.44997
539.1  442.36119
539  418.41216
538.9  477.63479
538.8  454.79308
538.7  424.94358
538.6  405.31886
538.5  425.80879
538.4  432.27816
538.3  405.57095
538.2  436.96403
538.1  449.19077
538  409.50104
537.9  408.77074
537.8  422.88745
537.7  398.51537
537.6  440.76823
537.5  435.60612
537.4  421.50568
537.3  444.04547
537.2  416.13612
537.1  397.71982
537  403.84059
536.9  425.1327
536.8  472.13093
536.7  440.56385
536.6  404.07359
536.5  457.60924
536.4  452.44688
536.3  472.48885
536.2  479.29586
536.1  514.75435
536  561.50994
535.9  614.39643
535.8  613.10903
535.7  678.2385
535.6  719.19307
535.5  827.30334
535.4  927.37938
535.3  1137.6512
535.2  1327.5138
535.1  1521.9726
535  1798.2305
534.9  2230.7952
534.8  2602.8113
534.7  3158.8877
534.6  3658.2928
534.5  4310.6571
534.4  4907.7771
534.3  5636.2124
534.2  6340.5201
534.1  6821.9872
534  7415.4134
533.9  7888.0187
533.8  8140.2232
533.7  8199.1014
533.6  8243.6042
533.5  7991.6316
533.4  7597.8045
533.3  7000.2804
533.2  6304.4533
533.1  5647.4256
533  4856.1164
532.9  4203.2572
532.8  3547.0356
532.7  2846.6319
532.6  2380.427
532.5  1999.7099
532.4  1670.8335
532.3  1434.893
532.2  1144.1171
532.1  951.65059
532  825.25569
531.9  746.15684
531.8  665.90145
531.7  606.44353
531.6  588.3779
531.5  541.14072
531.4  478.00413
531.3  497.45831
531.2  442.38583
531.1  438.63696
531  413.39247
530.9  454.1683
530.8  452.87656
530.7  422.99559
530.6  392.02898
530.5  390.88672
530.4  398.22161
530.3  377.84239
530.2  393.59584
530.1  419.85657
530  379.49774
529.9  360.74166
529.8  342.71051
529.7  389.52167
529.6  391.87004
529.5  345.36778
529.4  352.11593
529.3  339.89438
529.2  355.89353
529.1  348.39891
529  373.4526
528.9  368.34044
528.8  359.70802
528.7  349.72784
528.6  336.51052
528.5  369.84777
528.4  354.62817
528.3  368.14839
528.2  351.78705
528.1  314.53515
528  327.0846
527.9  346.16147
527.8  316.4496
527.7  327.77605
527.6  304.10228
527.5  340.00032
527.4  350.915
527.3  330.39058
527.2  308.27596
527.1  332.48469
527  343.07314
526.9  358.05481
526.8  305.18066
526.7  318.66707
526.6  334.58248
526.5  307.46648
526.4  323.39345
526.3  358.16348
526.2  375.01977
526.1  327.07223
526  342.61609
525.9  338.57822
525.8  336.36509
525.7  318.37414
525.6  323.18763
525.5  340.26565
525.4  343.41256
525.3  343.13522
525.2  332.13823
525.1  309.14062
525  281.38398
524.9  307.31527
524.8  340.18857
524.7  341.68112
524.6  316.01018
524.5  343.09869
524.4  342.81347
524.3  312.59209
524.2  312.32495
524.1  337.19116
524  335.67947
523.9  350.2631
523.8  359.26682
523.7  328.48524
523.6  345.31808
523.5  330.55906
523.4  299.40111
523.3  317.20185
523.2  317.39932
523.1  331.01738
523  328.60023
522.9  339.86552
522.8  336.94219
522.7  322.47295
522.6  349.29714
522.5  334.27768
522.4  302.97875
522.3  329.45101
522.2  318.59731
522.1  362.8218
522  332.27545
521.9  321.40016
521.8  324.96212
521.7  340.4763
521.6  344.58794
521.5  343.08586
521.4  339.0102
521.3  343.44705
521.2  348.17001
521.1  331.37543
521  349.37074
520.9  291.56679
520.8  286.73101
520.7  329.3284
520.6  334.64111
520.5  377.73389
520.4  332.41102
520.3  342.32846
520.2  353.92145
520.1  333.09855
520  286.69657