# Region:            O1s (2)
# Acquisition Date:  11/07/19 19:26:01 UTC
# Analysis Method:   XPS
# Analyzer:          Phoibos
# Analyzer Lens:     MediumArea:1.5kV
# Analyzer Slit:     4:3x20\B:open
# Scan Mode:         FixedAnalyzerTransmission
# Curves/Scan:       1
# Values/Curve:      211
# Dwell Time:        0.1
# Excitation Energy: 1486.71
# Binding Energy:    541
# Pass Energy:       10
# Bias Voltage:      90
# Detector Voltage:  1900
# Eff. Workfunction: 4.395
# Source:            Focus
# Comment:           
#
# Cycle: 0
# Number of Scans: 8
#
# Cycle: 0, Curve: 0
# Acquisition Date: 11/07/19 19:26:01 UTC
#
# ColumnLabels: energy counts/s
#
541  594.99748
540.9  509.05933
540.8  530.41484
540.7  561.72174
540.6  530.22212
540.5  546.49598
540.4  510.5801
540.3  505.12928
540.2  494.33845
540.1  484.539
540  549.90654
539.9  520.97458
539.8  480.05781
539.7  503.36403
539.6  546.4846
539.5  501.64737
539.4  482.50813
539.3  462.8013
539.2  447.7703
539.1  506.19834
539  473.69382
538.9  467.12959
538.8  468.31492
538.7  479.85257
538.6  487.27989
538.5  493.25646
538.4  563.92748
538.3  500.37393
538.2  512.89317
538.1  466.76296
538  464.82338
537.9  457.39769
537.8  536.4012
537.7  531.26665
537.6  525.93846
537.5  531.2116
537.4  526.82526
537.3  540.37761
537.2  594.35625
537.1  629.35071
537  670.92607
536.9  724.69274
536.8  799.8332
536.7  810.03808
536.6  893.22502
536.5  1009.3873
536.4  1140.0363
536.3  1325.2488
536.2  1527.6631
536.1  1765.2236
536  2078.0378
535.9  2483.0583
535.8  2799.3523
535.7  3360.2578
535.6  3949.5465
535.5  4469.1041
535.4  5166.0174
535.3  5757.3087
535.2  6498.038
535.1  7227.1218
535  8167.9969
534.9  8812.8278
534.8  9429.6001
534.7  10088.866
534.6  10378.692
534.5  10663.116
534.4  10786.322
534.3  10691.341
534.2  10212.737
534.1  9772.2674
534  9231.6064
533.9  8465.0316
533.8  7626.7698
533.7  6925.733
533.6  6059.432
533.5  5184.6765
533.4  4409.3946
533.3  3881.5437
533.2  3241.8629
533.1  2727.9951
533  2292.627
532.9  1955.7622
532.8  1544.1728
532.7  1380.0337
532.6  1198.3788
532.5  1033.8111
532.4  948.32101
532.3  811.28849
532.2  778.34948
532.1  709.7588
532  658.72152
531.9  616.58792
531.8  595.98878
531.7  583.47051
531.6  557.84779
531.5  559.98349
531.4  522.21236
531.3  461.94031
531.2  485.95343
531.1  498.23389
531  438.93313
530.9  446.05719
530.8  448.34901
530.7  454.04306
530.6  476.60996
530.5  415.24381
530.4  416.38886
530.3  408.57505
530.2  412.12112
530.1  432.81494
530  438.25325
529.9  419.50815
529.8  420.64571
529.7  443.7904
529.6  423.96972
529.5  401.19404
529.4  419.15044
529.3  400.13979
529.2  410.28896
529.1  392.5784
529  421.28429
528.9  428.59572
528.8  441.27637
528.7  401.24777
528.6  378.22685
528.5  394.59909
528.4  386.20377
528.3  408.26814
528.2  422.57876
528.1  413.47768
528  401.67432
527.9  418.6171
527.8  378.80453
527.7  425.84489
527.6  407.20639
527.5  403.94478
527.4  393.61716
527.3  365.75671
527.2  410.53671
527.1  385.20198
527  392.42649
526.9  399.22798
526.8  405.26188
526.7  383.05703
526.6  427.01547
526.5  393.72479
526.4  406.32645
526.3  412.10904
526.2  388.28653
526.1  398.75494
526  411.66658
525.9  371.84333
525.8  408.66587
525.7  370.88515
525.6  377.92349
525.5  433.18523
525.4  400.76189
525.3  409.18258
525.2  372.96763
525.1  360.11045
525  383.04584
524.9  400.61457
524.8  386.17675
524.7  391.81404
524.6  421.32082
524.5  389.24741
524.4  402.67131
524.3  407.46774
524.2  388.48466
524.1  415.26187
524  401.39931
523.9  377.27855
523.8  351.73529
523.7  357.17023
523.6  397.77773
523.5  425.72838
523.4  409.01985
523.3  407.75111
523.2  385.68341
523.1  377.71056
523  395.62585
522.9  423.7008
522.8  363.00163
522.7  379.09009
522.6  407.80789
522.5  398.53967
522.4  378.52489
522.3  364.25475
522.2  380.90413
522.1  363.4727
522  360.57374
521.9  394.75707
521.8  401.32685
521.7  390.0425
521.6  376.40975
521.5  393.77952
521.4  388.58066
521.3  395.41538
521.2  414.58081
521.1  392.19097
521  419.44796
520.9  383.03153
520.8  398.66419
520.7  373.41542
520.6  375.03022
520.5  366.44003
520.4  381.50454
520.3  401.66817
520.2  386.02719
520.1  384.45364
520  381.55857