# Region:            Survey 200s 3k 36uA H=5 (2)
# Acquisition Date:  11/07/19 19:14:00 UTC
# Analysis Method:   XPS
# Analyzer:          Phoibos
# Analyzer Lens:     MediumArea:1.5kV
# Analyzer Slit:     4:3x20\B:open
# Scan Mode:         FixedAnalyzerTransmission
# Curves/Scan:       1
# Values/Curve:      1301
# Dwell Time:        0.1
# Excitation Energy: 1486.71
# Binding Energy:    1300
# Pass Energy:       50
# Bias Voltage:      90
# Detector Voltage:  1900
# Eff. Workfunction: 4.395
# Source:            Focus
# Comment:           
#
# Cycle: 0
# Number of Scans: 2
#
# Cycle: 0, Curve: 0
# Acquisition Date: 11/07/19 19:14:00 UTC
#
# ColumnLabels: energy counts/s
#
1300  15443.394
1299  15860.115
1298  15732.664
1297  15349.376
1296  15473.182
1295  15392.64
1294  15452.119
1293  15249.806
1292  15587.822
1291  15532.021
1290  15585.247
1289  15028.698
1288  15392.416
1287  15832.64
1286  15343.987
1285  15623.1
1284  15367.417
1283  15993.055
1282  15965.191
1281  15264.231
1280  15310.142
1279  15446.851
1278  15214.995
1277  15800.897
1276  16327.098
1275  15460.315
1274  15209.189
1273  15291.967
1272  15233.542
1271  15458.895
1270  15413.022
1269  15118.813
1268  14993.98
1267  15257.99
1266  15334.963
1265  15815.015
1264  14999.517
1263  15464.659
1262  15277.507
1261  15471.812
1260  15458.172
1259  15441.482
1258  15158.65
1257  15544.854
1256  15595.5
1255  15703.801
1254  15806.142
1253  15642.777
1252  15362.344
1251  14959.576
1250  15409.215
1249  15633.87
1248  14980.504
1247  15335.801
1246  16213.453
1245  15644.571
1244  14943.622
1243  15060.696
1242  15532.708
1241  15038.83
1240  15095.274
1239  15737.483
1238  15692.876
1237  15718.958
1236  16195.437
1235  15517.04
1234  15479.884
1233  15451.743
1232  15999.396
1231  15415.92
1230  15431.839
1229  15613.183
1228  15420.836
1227  15384.909
1226  15746.709
1225  16099.734
1224  15608.552
1223  16049.677
1222  15247.112
1221  15591.585
1220  15897.295
1219  15462.693
1218  15320.19
1217  15482.528
1216  15509.37
1215  15700.215
1214  15584.663
1213  15339.113
1212  15246.818
1211  15478.417
1210  15136.779
1209  15405.441
1208  15327.971
1207  15570.561
1206  15442.352
1205  15238.99
1204  15230.478
1203  15555.654
1202  15612.566
1201  15618.084
1200  15573.332
1199  15791.715
1198  15583.752
1197  15666.591
1196  15482.165
1195  15233.856
1194  15223.076
1193  15277.231
1192  15531.615
1191  15249.944
1190  15881.147
1189  15423.892
1188  15141.178
1187  15440.212
1186  15173.792
1185  15228.029
1184  15750.521
1183  15694.132
1182  15199.957
1181  15469.161
1180  15325.416
1179  15331.912
1178  15216.222
1177  15932.304
1176  15599.006
1175  15266.319
1174  15431.711
1173  15195.192
1172  16177.853
1171  16092.065
1170  15323.711
1169  15663.068
1168  15520.746
1167  15517.154
1166  15606.544
1165  15912.139
1164  15632.312
1163  15850.352
1162  15465.702
1161  15303.69
1160  15708.598
1159  15284.855
1158  15795.41
1157  15814.434
1156  15658.751
1155  15436.342
1154  15679.567
1153  15398.097
1152  15567.208
1151  15443.315
1150  15101.651
1149  15564.175
1148  15263.798
1147  15531.506
1146  15855.264
1145  15483.58
1144  15538.386
1143  15559.854
1142  15417.055
1141  15431.24
1140  15392.726
1139  15586.006
1138  15158.521
1137  15316.446
1136  15694.359
1135  15600.536
1134  15877.905
1133  15706.088
1132  15710.823
1131  15633.554
1130  15741.598
1129  15896.157
1128  15654.054
1127  15627.569
1126  16063.725
1125  16014.656
1124  16170.672
1123  15708.882
1122  16068.6
1121  16193.647
1120  16073.194
1119  16118.038
1118  16597.467
1117  16099.272
1116  15666.793
1115  15956.256
1114  16057.067
1113  15540.305
1112  16560.67
1111  16592.139
1110  15978.818
1109  16264.074
1108  15715.752
1107  16337.052
1106  15738.361
1105  15859.812
1104  15586.038
1103  16343.599
1102  16121.364
1101  16008.47
1100  16009.624
1099  15078.639
1098  16027.934
1097  16444.311
1096  16496.164
1095  16320.333
1094  16065.96
1093  16013.331
1092  15885.814
1091  16198.542
1090  16167.343
1089  16528.98
1088  16132.885
1087  16263.591
1086  16620.907
1085  16364.727
1084  16206.909
1083  16164.189
1082  16154.092
1081  16551.897
1080  16579.827
1079  16035.013
1078  16126.026
1077  16248.101
1076  16440.028
1075  16397.429
1074  16614.532
1073  16528.743
1072  16034.367
1071  16876.37
1070  16717.907
1069  16405.675
1068  16413.037
1067  16469.987
1066  16705.956
1065  16639.978
1064  16466.581
1063  16569.014
1062  16437.444
1061  16992.447
1060  17201.79
1059  16728.569
1058  17116.294
1057  16710.237
1056  16905.2
1055  16841.622
1054  17266.715
1053  17411.381
1052  17011.725
1051  17252.604
1050  16684.312
1049  16964.195
1048  17180.141
1047  16952.839
1046  17781.989
1045  17624.256
1044  17717.487
1043  17989.994
1042  17723.117
1041  17580.16
1040  17420.551
1039  17584.626
1038  17431.413
1037  17881.802
1036  17842.121
1035  18083.786
1034  17957.792
1033  17603.391
1032  17518.385
1031  18131.343
1030  18349.764
1029  18093.899
1028  18272.267
1027  18229.312
1026  18535.281
1025  18537.799
1024  18374.36
1023  18461.969
1022  19229.193
1021  19173.202
1020  19579.214
1019  19674.408
1018  20276.506
1017  19396.756
1016  18908.063
1015  18132.881
1014  18485.435
1013  18631.386
1012  18885.821
1011  19171.792
1010  19290.253
1009  19736.851
1008  19924.485
1007  21080.323
1006  21274.33
1005  21964.146
1004  22543.782
1003  23329.543
1002  22592.068
1001  21279.188
1000  20214.09
999  19720.21
998  19016.976
997  19120.075
996  18897.474
995  18341.166
994  17461.214
993  16984.489
992  17337.38
991  18135.849
990  18473.691
989  18351.014
988  18419.437
987  20358.914
986  22605.207
985  24663.904
984  26810.869
983  28118.932
982  29636.934
981  29476.319
980  26730.339
979  23058.087
978  20724.632
977  18193.488
976  16633.261
975  15530.11
974  14240.263
973  13204.889
972  12366.206
971  11457.454
970  10470.122
969  10411.994
968  9863.6042
967  9489.9134
966  9334.7605
965  9075.5667
964  9268.185
963  9419.0495
962  9295.6022
961  9072.5195
960  9218.7101
959  8811.8014
958  9107.0466
957  9385.0714
956  9396.5239
955  9341.0652
954  9244.5662
953  9047.7055
952  9329.6599
951  8963.3629
950  9283.9599
949  9296.9586
948  9289.0613
947  9334.2212
946  9432.7564
945  9524.0166
944  9207.023
943  9191.5949
942  9373.3871
941  9626.4635
940  9402.5644
939  9039.5216
938  9358.3149
937  9694.0038
936  9428.8039
935  9495.1873
934  9538.1062
933  9382.8482
932  9527.0212
931  9487.3355
930  9406.7113
929  9871.6647
928  9645.3652
927  9935.7728
926  9479.9031
925  9916.8296
924  9845.2914
923  10061.887
922  10101.643
921  10433.656
920  10206.019
919  9754.7141
918  9920.5621
917  9631.2945
916  10013.789
915  10032.306
914  10070.774
913  9840.6454
912  9866.8167
911  9931.2969
910  9853.5611
909  9623.191
908  10052.695
907  10352.43
906  10002.646
905  10192.635
904  9892.7565
903  10464.248
902  10174.866
901  10348.961
900  10223.128
899  10316.218
898  10043.573
897  10182.747
896  10420.266
895  10681.917
894  10227.861
893  10227.244
892  10236.66
891  10327.427
890  10498.29
889  10253.451
888  10320.063
887  10387.806
886  10572.441
885  10531.591
884  10594.369
883  10348.661
882  10465.507
881  10655.91
880  10965.273
879  11002.11
878  11104.344
877  10835.841
876  10870.897
875  11023.632
874  10858.123
873  10522.882
872  10574.414
871  10666.216
870  11044.568
869  11068.777
868  10852.943
867  11081.505
866  11149.081
865  11327.218
864  11134.86
863  11231.07
862  10929.265
861  10928.628
860  11124.757
859  10968.967
858  11546.005
857  11395.195
856  11435.128
855  11354.174
854  11297.576
853  11230.935
852  11660.917
851  11843.618
850  11373.305
849  11905.419
848  11508.774
847  11206.062
846  11381.393
845  11327.192
844  11894.088
843  11995.318
842  11864.379
841  11471.555
840  11425.733
839  11875.066
838  11564.371
837  11675.537
836  11557.161
835  11955.611
834  11885.011
833  11948.571
832  11895.659
831  11762.729
830  11678.852
829  11376.422
828  11998.595
827  12358.383
826  12002.714
825  11979.204
824  11989.546
823  12533.665
822  12464.38
821  12093.212
820  12177.996
819  12202.575
818  11876.28
817  12007.959
816  12330.224
815  12132.676
814  12199.308
813  12492.346
812  12360.946
811  12430.483
810  12447.16
809  12387.676
808  12662.827
807  12510.849
806  12337.986
805  12264.374
804  12193.742
803  12304.165
802  12310.23
801  12198.326
800  12618.746
799  12409.768
798  12076.225
797  12598.426
796  13133.911
795  12620.387
794  12828.206
793  12465.943
792  12674.885
791  12500.14
790  12455.764
789  13021.327
788  13103.307
787  12744.558
786  12762.914
785  12893.636
784  13097.525
783  13308.365
782  12996.546
781  13097.447
780  13142.542
779  13105.06
778  13156.064
777  13295.772
776  13490.714
775  13323.242
774  13220.235
773  13436.944
772  13129.027
771  13745.51
770  13293.941
769  13325.498
768  13625.151
767  13278.423
766  13034.205
765  13270.715
764  13303.275
763  13407.137
762  13306.112
761  13487.626
760  13724.695
759  13338.397
758  13247.452
757  13615.949
756  13700.415
755  14229.831
754  13786.413
753  13874.448
752  13512.225
751  13417.713
750  13702.557
749  13597.716
748  13468.422
747  13479.29
746  13490.964
745  13946.249
744  14042.692
743  13760.106
742  13799.596
741  14090.734
740  14444.911
739  13975.787
738  13865.369
737  14481.682
736  14542.482
735  14187.928
734  14199.189
733  14061.312
732  14031.975
731  14325.404
730  14441.074
729  14342.913
728  14418.587
727  14223.182
726  14290.993
725  14436.408
724  14545.836
723  14756.425
722  14311.883
721  14468.925
720  14768.755
719  14573.684
718  14762.003
717  14298.484
716  14847.47
715  15181.877
714  14567.433
713  14859.179
712  15057.093
711  14993.626
710  14733.483
709  14709.248
708  14999.281
707  14819.094
706  14634.957
705  14660.11
704  14948.538
703  14861.102
702  15341.83
701  15220.856
700  14773.324
699  15096.322
698  14875.174
697  15248.692
696  15121.868
695  15269.787
694  15136.88
693  14860.046
692  15113.549
691  15687.284
690  15561.66
689  15462.739
688  15240.654
687  15543.004
686  15230.269
685  15399.933
684  15514.02
683  15401.516
682  15398.646
681  15350.074
680  15341.496
679  15843.796
678  16266.323
677  15644.517
676  15588.294
675  16118.391
674  15445.633
673  15875.791
672  15745.082
671  15794.985
670  16284.544
669  16265.429
668  15947.212
667  15631.28
666  15839.544
665  16011.567
664  16679.803
663  16307.576
662  16511.418
661  16397.266
660  16524.167
659  16560.481
658  16945.131
657  16501.081
656  16265.69
655  16344.084
654  16699.691
653  16330.947
652  16231.862
651  16848.994
650  16242.498
649  16772.856
648  16395.463
647  16008.292
646  16226.293
645  16512.293
644  16593.438
643  16763.605
642  16312.313
641  16836.689
640  16796.759
639  16801.806
638  16957.07
637  16413.561
636  16856.075
635  17192.483
634  17193.192
633  17110.335
632  16852.427
631  16736.56
630  16938.934
629  17056.863
628  16920.157
627  16905.767
626  17341.147
625  17162.804
624  17484.209
623  16708.358
622  16786.736
621  17413.253
620  17368.018
619  17568.239
618  17372.017
617  17489.449
616  17557.012
615  17545.548
614  17437.48
613  16986.09
612  17517.73
611  17709.259
610  17972.89
609  17610.895
608  17526.15
607  17450.431
606  17874.654
605  17587.037
604  17354.656
603  17597.789
602  17980.877
601  17809.034
600  17798.63
599  18312.255
598  18453.098
597  18304.916
596  18152.929
595  18302.938
594  18289.175
593  18455.215
592  18169.375
591  18798.874
590  18558.489
589  18944.672
588  18737.863
587  18773.985
586  18953.108
585  18751.531
584  19070.464
583  19013.136
582  19086.658
581  18954.877
580  19151.313
579  18952.112
578  19085.762
577  19170.669
576  18981.646
575  18840.433
574  18717.194
573  18639.363
572  18148.491
571  17272.513
570  17731.518
569  17700.9
568  18128.25
567  17840.973
566  18041.723
565  18606.613
564  19525.207
563  20354.758
562  21039.466
561  21572.464
560  22600.343
559  22877.651
558  23335.063
557  23804.614
556  22801.596
555  21614.29
554  20349.795
553  18333.558
552  16736.158
551  16509.607
550  15472.999
549  15184.615
548  14278.644
547  13121.437
546  12346.883
545  10910.928
544  9804.5119
543  9325.6575
542  8848.2962
541  8373.8437
540  8338.1826
539  9012.109
538  11836.917
537  20569.218
536  50649.67
535  116020.48
534  116770.72
533  43669.002
532  12959.572
531  7459.6464
530  6509.4305
529  6367.123
528  6091.7567
527  6213.4794
526  6080.1356
525  5851.4906
524  5928.5279
523  5872.9574
522  6066.9463
521  6176.2055
520  5930.3601
519  5716.2265
518  5847.6483
517  5778.6764
516  5743.1909
515  5833.0443
514  5789.195
513  5846.8263
512  5891.1132
511  6065.2487
510  5873.07
509  6209.1157
508  5986.2734
507  5864.0873
506  5778.1556
505  5709.8646
504  6115.5757
503  6003.0279
502  6054.8332
501  5975.8402
500  5963.9512
499  5904.8377
498  6007.2044
497  5903.6073
496  6227.4945
495  6198.1656
494  6171.5652
493  6070.9367
492  6134.005
491  6111.1789
490  5788.6091
489  6252.1922
488  5857.5882
487  6178.6717
486  6389.2787
485  5821.8354
484  5499.4451
483  6136.5784
482  6254.0744
481  6195.6817
480  6138.505
479  5954.8681
478  6192.0009
477  6220.7445
476  6363.0456
475  5998.2772
474  6051.8388
473  6083.1708
472  5857.4136
471  6069.2889
470  6044.1987
469  6062.594
468  6131.9051
467  6229.365
466  6218.2458
465  6336.3698
464  5965.0687
463  6061.161
462  6380.8457
461  6011.6703
460  6374.4983
459  6338.3903
458  6230.4655
457  6058.638
456  6305.4657
455  6252.8049
454  6342.0944
453  6314.2473
452  6266.1628
451  6448.837
450  6328.9796
449  5967.9954
448  6172.6691
447  6317.3301
446  6165.0531
445  6181.9717
444  6195.7166
443  6384.5912
442  6299.2631
441  6520.9209
440  6212.3343
439  6245.6447
438  6214.2753
437  6105.7843
436  5972.0996
435  6166.7002
434  6319.8666
433  6426.3946
432  6393.7933
431  6226.4647
430  6324.004
429  6341.5332
428  6129.1298
427  6412.3884
426  6173.7593
425  6264.3399
424  5905.9049
423  6066.7972
422  5970.9632
421  6298.3222
420  6358.2697
419  6195.1684
418  6282.4611
417  6552.6878
416  6540.8034
415  6882.0046
414  6366.6634
413  6349.032
412  6453.8003
411  6296.4117
410  6502.4317
409  6548.0625
408  6154.128
407  6018.4534
406  6388.4659
405  6553.9003
404  6452.9846
403  6397.3579
402  6772.4993
401  6814.2568
400  6718.356
399  6578.3908
398  6703.523
397  6269.2846
396  6266.4312
395  6084.1289
394  6387.6867
393  6661.5272
392  6551.5074
391  6713.1549
390  6377.2081
389  6219.1741
388  6390.1123
387  6588.1587
386  6491.6261
385  6613.432
384  6182.0954
383  6390.6204
382  6367.5169
381  6459.8407
380  6401.7927
379  6341.2165
378  6408.428
377  6691.4844
376  6663.438
375  6460.9694
374  6651.3742
373  6385.1941
372  6496.1455
371  6409.9494
370  6784.6289
369  6528.5645
368  6466.6092
367  6347.173
366  6596.1248
365  6632.005
364  6247.8274
363  6389.302
362  6489.3598
361  6327.5111
360  6581.7565
359  6175.1335
358  6217.9029
357  6408.709
356  6847.581
355  6703.8104
354  6769.8777
353  6758.7438
352  6636.4365
351  6912.5165
350  6792.3122
349  6845.1519
348  6449.9944
347  6425.5707
346  6432.0577
345  6189.2892
344  6414.4026
343  6439.148
342  6405.4524
341  6680.8599
340  6552.2259
339  6400.9153
338  6516.4229
337  6421.3154
336  6436.6251
335  6565.2052
334  6474.8396
333  6333.6006
332  6680.2009
331  6777.5125
330  6240.8844
329  6440.777
328  6559.5697
327  6297.7206
326  6404.6278
325  6307.2681
324  6705.2141
323  6855.8105
322  6949.3075
321  7129.0554
320  6813.2716
319  6510.3434
318  6397.6534
317  6012.1244
316  6174.1901
315  6436.7728
314  6604.9228
313  6613.605
312  6346.4778
311  6464.1568
310  6301.3491
309  6470.2747
308  6628.7859
307  6422.9848
306  6524.3704
305  6401.5003
304  6293.507
303  6409.5289
302  6375.9455
301  6213.7477
300  6177.4603
299  6327.7558
298  6219.6749
297  6237.8047
296  6356.7461
295  6352.9656
294  6385.1591
293  6560.6696
292  6313.6348
291  6389.5416
290  6493.4323
289  6594.1519
288  6643.2385
287  6980.4078
286  6956.404
285  6700.5077
284  6522.2981
283  6358.8952
282  6527.6186
281  6307.0643
280  6329.417
279  6422.197
278  6699.1784
277  6255.6003
276  6420.2121
275  6115.8777
274  6351.9466
273  6369.7402
272  6498.0695
271  6203.9411
270  6274.0448
269  6112.0908
268  6294.1647
267  6246.8134
266  6292.006
265  6379.0151
264  6465.1488
263  6162.6224
262  5976.8531
261  6089.0437
260  6038.3043
259  5974.8533
258  6117.4573
257  5838.8948
256  5975.1665
255  6128.6262
254  5953.4953
253  6032.6914
252  6029.9802
251  6198.4302
250  6065.3117
249  6175.923
248  6427.667
247  6544.1429
246  6884.0038
245  7198.5163
244  6906.803
243  6914.4971
242  6514.6408
241  6177.628
240  5952.2457
239  5856.9811
238  5873.6237
237  5987.9945
236  6127.5439
235  5946.6276
234  6175.8806
233  6139.3528
232  6136.2429
231  6083.146
230  5747.7174
229  6049.3287
228  6127.2126
227  6123.2754
226  5970.2403
225  5874.1183
224  6085.5951
223  6028.0859
222  5990.0227
221  5895.954
220  6061.6111
219  5688.3823
218  6052.408
217  5915.9932
216  5872.5884
215  5948.0387
214  5944.9763
213  6166.8627
212  6125.7905
211  6024.4525
210  6280.8999
209  5833.671
208  5913.7807
207  6231.2337
206  6439.1124
205  6235.1684
204  6417.7526
203  6226.1034
202  6106.6423
201  6153.7236
200  6153.5115
199  6214.6613
198  6205.5828
197  6346.9926
196  6427.4555
195  6372.2952
194  6327.2391
193  6368.973
192  6341.7648
191  6273.0909
190  6166.4104
189  6376.5733
188  6281.4699
187  6284.1021
186  6371.5033
185  6351.8874
184  6757.746
183  6628.3237
182  7136.3459
181  7108.8019
180  7132.2429
179  7430.4959
178  7339.5192
177  7046.0451
176  6981.0704
175  6687.167
174  7024.2369
173  6422.7312
172  6052.0958
171  6086.7418
170  5533.4919
169  5564.7496
168  5664.7133
167  5203.7433
166  5060.2347
165  4747.8657
164  4546.1849
163  4574.7087
162  4871.7918
161  5104.492
160  5921.7396
159  8438.7751
158  13397.944
157  22644.032
156  27187.009
155  20000.003
154  11511.963
153  7159.1826
152  5669.5865
151  4886.5028
150  4352.954
149  4262.9019
148  4010.603
147  4144.6083
146  4076.1309
145  4006.9153
144  3634.7821
143  3937.0422
142  3830.4672
141  3525.9439
140  3613.2181
139  3663.2334
138  3615.1649
137  3657.7022
136  3615.04
135  3779.7559
134  3799.4778
133  3785.3889
132  4012.4499
131  4143.0002
130  4191.8042
129  4451.4666
128  4563.2915
127  4570.0062
126  4552.044
125  4294.7838
124  4351.1882
123  3874.2664
122  3670.9448
121  3471.4058
120  3434.6326
119  3161.1346
118  2869.4224
117  2491.6324
116  2275.6997
115  1922.6292
114  1854.0126
113  1829.9425
112  1736.0577
111  1469.2014
110  1582.5544
109  1985.4829
108  3207.0515
107  7985.1707
106  21406.514
105  29256.57
104  17591.877
103  5659.2418
102  1943.5746
101  1316.9772
100  1285.054
99  1191.6448
98  955.46845
97  1106.9348
96  1147.9693
95  1065.7951
94  1030.5715
93  1046.7083
92  1070.5813
91  1029.2862
90  1032.2829
89  1014.5858
88  976.62657
87  1020.3497
86  1105.7469
85  1097.6539
84  1081.8706
83  1077.3754
82  1074.3209
81  1110.5277
80  1195.9179
79  1110.9544
78  1173.2745
77  1071.0211
76  1138.4943
75  1165.5081
74  1099.1372
73  1085.9553
72  1116.502
71  1099.2832
70  1166.625
69  1030.3679
68  1017.2161
67  1081.0832
66  1127.4472
65  1096.4673
64  1064.3839
63  1080.8764
62  1157.2906
61  1143.5531
60  1158.1746
59  1170.9686
58  1264.37
57  1215.4324
56  1310.925
55  1319.9913
54  1248.9063
53  1305.7873
52  1506.8388
51  1566.7401
50  1352.8411
49  1298.246
48  1279.4339
47  1227.3896
46  1237.735
45  1161.1578
44  1119.3755
43  1145.0912
42  1024.8929
41  993.86621
40  914.86107
39  940.62109
38  979.73859
37  914.55921
36  949.96543
35  1009.9937
34  1070.7217
33  1252.5321
32  1206.3696
31  1469.0591
30  2110.8245
29  3179.9984
28  4136.9937
27  4386.6794
26  3808.2699
25  2023.0201
24  922.25143
23  433.88344
22  382.43168
21  272.21346
20  207.37842
19  202.51399
18  479.71763
17  931.17862
16  1199.9166
15  1192.1229
14  1001.8547
13  1116.9535
12  1093.1924
11  1150.5064
10  1235.4354
9  1113.0198
8  950.4303
7  466.75524
6  208.81893
5  117.93418
4  64.350822
3  17.5342
2  14.2311
1  1.125225
0  5.387075