# Region:            O1s (13)
# Acquisition Date:  11/08/19 15:34:23 UTC
# Analysis Method:   XPS
# Analyzer:          Phoibos
# Analyzer Lens:     MediumArea:1.5kV
# Analyzer Slit:     4:3x20\B:open
# Scan Mode:         FixedAnalyzerTransmission
# Curves/Scan:       1
# Values/Curve:      211
# Dwell Time:        0.1
# Excitation Energy: 1486.71
# Binding Energy:    541
# Pass Energy:       10
# Bias Voltage:      90
# Detector Voltage:  1900
# Eff. Workfunction: 4.395
# Source:            Focus
# Comment:           
#
# Cycle: 0
# Number of Scans: 8
#
# Cycle: 0, Curve: 0
# Acquisition Date: 11/08/19 15:34:23 UTC
#
# ColumnLabels: energy counts/s
#
541  537.07234
540.9  550.85869
540.8  559.53254
540.7  582.39721
540.6  561.33232
540.5  518.31898
540.4  533.48609
540.3  541.21453
540.2  547.8315
540.1  515.85953
540  507.8282
539.9  524.80421
539.8  528.84337
539.7  488.09379
539.6  530.1934
539.5  545.33994
539.4  488.24035
539.3  510.8176
539.2  499.1001
539.1  483.95831
539  489.506
538.9  508.70191
538.8  533.81304
538.7  508.03639
538.6  524.79201
538.5  515.42758
538.4  464.56635
538.3  477.67568
538.2  481.19108
538.1  497.1787
538  486.68512
537.9  522.69069
537.8  508.85655
537.7  522.61486
537.6  504.76213
537.5  499.6336
537.4  514.00543
537.3  487.23505
537.2  508.59236
537.1  513.46736
537  521.58481
536.9  561.06858
536.8  609.74053
536.7  629.19309
536.6  671.58018
536.5  713.00016
536.4  742.1888
536.3  823.78526
536.2  902.02058
536.1  1100.7526
536  1161.9933
535.9  1361.5532
535.8  1537.9415
535.7  1838.696
535.6  2242.4824
535.5  2525.3522
535.4  3040.9676
535.3  3635.1425
535.2  4180.7496
535.1  4799.5398
535  5693.2557
534.9  6326.2281
534.8  7104.9193
534.7  7904.0851
534.6  8666.4303
534.5  9181.115
534.4  9748.6063
534.3  10238.694
534.2  10200.242
534.1  10329.358
534  10100.724
533.9  9732.6603
533.8  9133.8474
533.7  8767.432
533.6  7886.3472
533.5  7087.6143
533.4  6323.916
533.3  5413.566
533.2  4649.2923
533.1  4008.538
533  3362.3151
532.9  2657.5816
532.8  2279.2635
532.7  1964.2173
532.6  1625.7205
532.5  1383.299
532.4  1122.2176
532.3  1023.3098
532.2  867.92341
532.1  848.61644
532  795.42098
531.9  725.11606
531.8  710.97944
531.7  650.62299
531.6  608.31529
531.5  560.77416
531.4  582.22722
531.3  546.2909
531.2  541.27889
531.1  538.65156
531  538.05191
530.9  480.52391
530.8  486.56634
530.7  505.83953
530.6  530.79923
530.5  487.12922
530.4  462.8663
530.3  494.02292
530.2  468.50213
530.1  473.73696
530  446.70196
529.9  448.70707
529.8  450.48269
529.7  424.38521
529.6  431.86546
529.5  400.71702
529.4  392.00308
529.3  419.46196
529.2  453.69037
529.1  449.87005
529  492.4922
528.9  426.12923
528.8  426.48737
528.7  425.02846
528.6  455.12114
528.5  449.11853
528.4  406.4599
528.3  443.0752
528.2  416.75226
528.1  429.58716
528  410.71672
527.9  439.0162
527.8  455.03152
527.7  428.92947
527.6  409.73187
527.5  422.01664
527.4  404.28241
527.3  404.25005
527.2  413.98586
527.1  405.47543
527  411.87909
526.9  401.87401
526.8  417.09587
526.7  423.43769
526.6  438.91145
526.5  438.24243
526.4  417.31353
526.3  388.43101
526.2  390.62639
526.1  436.56908
526  412.68545
525.9  393.77485
525.8  438.80998
525.7  401.96837
525.6  375.46911
525.5  438.92789
525.4  445.5097
525.3  434.29289
525.2  418.58497
525.1  426.68649
525  430.95827
524.9  405.59377
524.8  404.20522
524.7  440.28442
524.6  380.07014
524.5  416.45553
524.4  383.64619
524.3  457.00015
524.2  407.19683
524.1  382.20008
524  424.23591
523.9  403.26819
523.8  390.91732
523.7  400.69645
523.6  409.26169
523.5  356.46256
523.4  401.35859
523.3  410.00793
523.2  400.75585
523.1  400.94999
523  389.29951
522.9  417.66323
522.8  408.08579
522.7  442.87549
522.6  406.10151
522.5  384.56193
522.4  390.87619
522.3  360.76092
522.2  393.62878
522.1  390.02431
522  392.36909
521.9  384.89154
521.8  422.58668
521.7  413.77479
521.6  406.47057
521.5  420.1798
521.4  441.65057
521.3  406.75871
521.2  376.41435
521.1  394.67502
521  423.22114
520.9  399.25435
520.8  396.5856
520.7  401.47765
520.6  411.83614
520.5  391.68194
520.4  399.79959
520.3  391.35408
520.2  392.42203
520.1  413.30547
520  399.11854