# Region:            O1s (22)
# Acquisition Date:  11/08/19 18:26:08 UTC
# Analysis Method:   XPS
# Analyzer:          Phoibos
# Analyzer Lens:     MediumArea:1.5kV
# Analyzer Slit:     4:3x20\B:open
# Scan Mode:         FixedAnalyzerTransmission
# Curves/Scan:       1
# Values/Curve:      211
# Dwell Time:        0.1
# Excitation Energy: 1486.71
# Binding Energy:    541
# Pass Energy:       10
# Bias Voltage:      90
# Detector Voltage:  1900
# Eff. Workfunction: 4.395
# Source:            Focus
# Comment:           5 grados
#
# Cycle: 0
# Number of Scans: 8
#
# Cycle: 0, Curve: 0
# Acquisition Date: 11/08/19 18:26:08 UTC
#
# ColumnLabels: energy counts/s
#
541  621.00023
540.9  635.91002
540.8  620.01774
540.7  589.85498
540.6  591.64081
540.5  592.18555
540.4  553.19086
540.3  569.92974
540.2  548.53738
540.1  568.47196
540  564.3742
539.9  561.99937
539.8  537.05334
539.7  558.69216
539.6  525.20296
539.5  554.56184
539.4  591.89879
539.3  541.62578
539.2  526.12058
539.1  542.12252
539  555.31362
538.9  546.09434
538.8  564.52695
538.7  589.51363
538.6  554.90223
538.5  586.85058
538.4  579.65187
538.3  530.5186
538.2  557.18033
538.1  540.60134
538  548.12092
537.9  541.8686
537.8  563.03162
537.7  542.79937
537.6  536.6608
537.5  549.51905
537.4  541.38017
537.3  598.62293
537.2  617.81489
537.1  600.88123
537  606.11122
536.9  608.0765
536.8  618.04006
536.7  653.15167
536.6  672.95095
536.5  734.4376
536.4  794.40584
536.3  893.95299
536.2  949.91614
536.1  1060.5252
536  1112.4558
535.9  1330.9754
535.8  1530.2699
535.7  1851.5336
535.6  2234.7434
535.5  2471.1301
535.4  3109.8496
535.3  3639.5476
535.2  4244.9873
535.1  4947.3987
535  5803.6772
534.9  6736.7485
534.8  7624.065
534.7  8356.1055
534.6  9306.332
534.5  9955.68
534.4  10425.037
534.3  11086.22
534.2  11255.393
534.1  11374.959
534  11257.6
533.9  10819.265
533.8  10240.109
533.7  9498.5483
533.6  8586.0647
533.5  7787.1055
533.4  6577.8325
533.3  5809.4055
533.2  4939.579
533.1  4203.5128
533  3489.6483
532.9  2849.1173
532.8  2422.0329
532.7  2001.9606
532.6  1654.2633
532.5  1437.5879
532.4  1250.1681
532.3  1082.8092
532.2  964.90258
532.1  859.00838
532  773.5034
531.9  793.58632
531.8  738.58379
531.7  670.29092
531.6  673.45383
531.5  613.69133
531.4  634.55513
531.3  587.69032
531.2  593.89875
531.1  611.4812
531  557.70533
530.9  547.04506
530.8  529.10264
530.7  520.04076
530.6  479.70918
530.5  501.49609
530.4  548.17413
530.3  526.49245
530.2  493.06742
530.1  515.69138
530  505.16027
529.9  508.10241
529.8  505.01172
529.7  448.51911
529.6  461.47251
529.5  525.64732
529.4  515.39319
529.3  519.39305
529.2  477.04604
529.1  449.63801
529  479.89164
528.9  458.75945
528.8  435.70962
528.7  458.00686
528.6  464.53266
528.5  467.14352
528.4  477.53987
528.3  459.15253
528.2  453.79839
528.1  469.79031
528  431.22714
527.9  438.88741
527.8  415.53913
527.7  418.47142
527.6  444.93497
527.5  447.51607
527.4  478.83479
527.3  480.80357
527.2  416.61517
527.1  475.35256
527  445.58301
526.9  440.77584
526.8  414.17118
526.7  428.25791
526.6  444.63357
526.5  471.97307
526.4  452.03103
526.3  414.83576
526.2  424.25123
526.1  471.43462
526  487.53994
525.9  475.16941
525.8  428.63946
525.7  492.18854
525.6  449.4928
525.5  452.90754
525.4  482.33878
525.3  453.20321
525.2  435.64192
525.1  451.20633
525  503.3497
524.9  439.32089
524.8  450.65893
524.7  451.07289
524.6  455.34751
524.5  458.53369
524.4  411.9481
524.3  410.6339
524.2  392.15139
524.1  435.5558
524  431.21809
523.9  428.9509
523.8  420.82764
523.7  432.76003
523.6  471.40424
523.5  471.44824
523.4  431.9432
523.3  462.20526
523.2  482.61048
523.1  430.83675
523  440.27971
522.9  456.70176
522.8  431.12338
522.7  433.86903
522.6  443.17549
522.5  448.79125
522.4  435.73853
522.3  419.53068
522.2  449.34761
522.1  457.05844
522  488.4242
521.9  432.29809
521.8  414.45513
521.7  433.99785
521.6  448.88831
521.5  486.27159
521.4  481.94162
521.3  452.57119
521.2  413.07206
521.1  433.46831
521  436.91107
520.9  432.39962
520.8  463.66272
520.7  464.88016
520.6  462.89584
520.5  433.60616
520.4  440.41649
520.3  451.01651
520.2  415.00535
520.1  474.29107
520  426.01937