# Region:            O1s (15)
# Acquisition Date:  11/08/19 16:27:17 UTC
# Analysis Method:   XPS
# Analyzer:          Phoibos
# Analyzer Lens:     MediumArea:1.5kV
# Analyzer Slit:     4:3x20\B:open
# Scan Mode:         FixedAnalyzerTransmission
# Curves/Scan:       1
# Values/Curve:      211
# Dwell Time:        0.1
# Excitation Energy: 1486.71
# Binding Energy:    541
# Pass Energy:       10
# Bias Voltage:      90
# Detector Voltage:  1900
# Eff. Workfunction: 4.395
# Source:            Focus
# Comment:           15 grados
#
# Cycle: 0
# Number of Scans: 8
#
# Cycle: 0, Curve: 0
# Acquisition Date: 11/08/19 16:27:17 UTC
#
# ColumnLabels: energy counts/s
#
541  548.22913
540.9  506.34807
540.8  486.75174
540.7  501.11056
540.6  513.80578
540.5  512.90292
540.4  465.37266
540.3  464.59987
540.2  445.66711
540.1  433.67465
540  497.56185
539.9  465.92355
539.8  462.60298
539.7  444.63111
539.6  446.55779
539.5  452.08348
539.4  452.43195
539.3  484.67596
539.2  436.07543
539.1  429.17422
539  435.63242
538.9  463.97145
538.8  481.38947
538.7  434.56299
538.6  404.09658
538.5  455.00159
538.4  446.35189
538.3  494.31002
538.2  447.3831
538.1  502.00599
538  469.843
537.9  425.48104
537.8  427.02516
537.7  472.71489
537.6  491.98902
537.5  471.24072
537.4  442.59936
537.3  480.38503
537.2  494.94742
537.1  521.04489
537  573.43797
536.9  572.02164
536.8  583.61271
536.7  615.17897
536.6  587.88379
536.5  652.42762
536.4  740.57479
536.3  796.90775
536.2  863.06822
536.1  990.91481
536  1137.0231
535.9  1380.2672
535.8  1556.67
535.7  1837.3444
535.6  2168.1829
535.5  2594.4373
535.4  3121.7099
535.3  3648.7879
535.2  4198.3163
535.1  4860.0493
535  5531.2742
534.9  6251.2318
534.8  7057.3438
534.7  7869.1446
534.6  8412.9486
534.5  8857.3567
534.4  9292.2751
534.3  9574.6615
534.2  9712.0343
534.1  9625.4349
534  9255.1249
533.9  8868.9436
533.8  8269.1995
533.7  7521.4094
533.6  7042.5169
533.5  6121.0043
533.4  5399.2547
533.3  4642.7115
533.2  3827.1155
533.1  3405.4
533  2814.4574
532.9  2333.6708
532.8  1908.7719
532.7  1608.2676
532.6  1360.6013
532.5  1125.0086
532.4  941.36643
532.3  840.18
532.2  789.42484
532.1  749.61532
532  677.772
531.9  620.25945
531.8  602.92317
531.7  567.78264
531.6  576.06035
531.5  576.84101
531.4  510.48713
531.3  535.55043
531.2  484.67992
531.1  476.67361
531  485.64459
530.9  469.26271
530.8  458.8622
530.7  431.05466
530.6  412.54741
530.5  435.25617
530.4  379.89997
530.3  412.7148
530.2  412.57469
530.1  392.79202
530  371.9258
529.9  399.0146
529.8  395.22206
529.7  371.09239
529.6  388.93559
529.5  393.57789
529.4  404.27587
529.3  375.82153
529.2  373.03487
529.1  378.83745
529  367.94324
528.9  402.61207
528.8  372.17941
528.7  439.37468
528.6  440.09281
528.5  407.75552
528.4  384.66849
528.3  405.03496
528.2  399.343
528.1  362.90086
528  370.96573
527.9  370.28484
527.8  380.54946
527.7  397.17253
527.6  368.88359
527.5  380.25999
527.4  362.79925
527.3  377.28476
527.2  366.21667
527.1  395.5669
527  339.6245
526.9  386.90126
526.8  379.10268
526.7  349.34222
526.6  372.246
526.5  373.53076
526.4  371.46198
526.3  339.52926
526.2  376.8813
526.1  411.43289
526  407.11816
525.9  393.62343
525.8  362.23082
525.7  378.93898
525.6  376.97076
525.5  380.8773
525.4  404.95486
525.3  364.64322
525.2  367.82667
525.1  370.10194
525  370.61859
524.9  388.07021
524.8  350.50559
524.7  396.55618
524.6  402.02038
524.5  385.6341
524.4  395.11314
524.3  394.18989
524.2  383.09298
524.1  368.50619
524  363.55237
523.9  368.85838
523.8  357.55447
523.7  372.83268
523.6  365.89741
523.5  384.80935
523.4  370.9969
523.3  385.18266
523.2  413.00694
523.1  380.36308
523  376.34226
522.9  352.11303
522.8  382.45051
522.7  347.52375
522.6  346.73626
522.5  371.60728
522.4  361.3293
522.3  354.70667
522.2  382.29487
522.1  343.75526
522  349.75936
521.9  344.83748
521.8  353.79932
521.7  375.04034
521.6  348.81739
521.5  376.65361
521.4  390.19647
521.3  398.67045
521.2  359.02641
521.1  377.71194
521  363.10207
520.9  355.47196
520.8  350.76028
520.7  391.3927
520.6  392.73401
520.5  396.46402
520.4  357.98091
520.3  329.85786
520.2  404.28948
520.1  384.30499
520  359.19097