# Region:            O1s (20)
# Acquisition Date:  11/08/19 17:47:39 UTC
# Analysis Method:   XPS
# Analyzer:          Phoibos
# Analyzer Lens:     MediumArea:1.5kV
# Analyzer Slit:     4:3x20\B:open
# Scan Mode:         FixedAnalyzerTransmission
# Curves/Scan:       1
# Values/Curve:      211
# Dwell Time:        0.1
# Excitation Energy: 1486.71
# Binding Energy:    541
# Pass Energy:       10
# Bias Voltage:      90
# Detector Voltage:  1900
# Eff. Workfunction: 4.395
# Source:            Focus
# Comment:           
#
# Cycle: 0
# Number of Scans: 8
#
# Cycle: 0, Curve: 0
# Acquisition Date: 11/08/19 17:47:39 UTC
#
# ColumnLabels: energy counts/s
#
541  571.62503
540.9  587.41712
540.8  533.43378
540.7  532.2197
540.6  524.18588
540.5  539.28883
540.4  546.27059
540.3  532.81907
540.2  526.66077
540.1  522.74976
540  547.0797
539.9  517.92068
539.8  540.15247
539.7  464.51629
539.6  503.76043
539.5  502.6139
539.4  511.1876
539.3  515.79658
539.2  472.36841
539.1  540.63468
539  539.55341
538.9  560.15449
538.8  478.6185
538.7  517.05186
538.6  507.35961
538.5  510.66048
538.4  534.92473
538.3  495.5022
538.2  507.1354
538.1  458.93949
538  461.35326
537.9  482.56184
537.8  537.93653
537.7  501.0413
537.6  536.91104
537.5  500.32105
537.4  529.82306
537.3  548.02534
537.2  510.22864
537.1  574.26246
537  555.0533
536.9  565.17047
536.8  604.62385
536.7  639.71082
536.6  647.93338
536.5  688.32646
536.4  694.72513
536.3  776.57413
536.2  847.81145
536.1  971.30361
536  1113.1024
535.9  1231.203
535.8  1397.091
535.7  1626.8491
535.6  1978.5028
535.5  2398.0066
535.4  2906.1623
535.3  3380.217
535.2  3905.0983
535.1  4547.4342
535  5223.0414
534.9  6069.0775
534.8  6825.8912
534.7  7550.9039
534.6  8382.4288
534.5  8995.9453
534.4  9398.1505
534.3  10093.199
534.2  10199.203
534.1  10347.415
534  10218.324
533.9  9876.2038
533.8  9523.9285
533.7  8795.0579
533.6  8160.6356
533.5  7256.6684
533.4  6359.7167
533.3  5450.2512
533.2  4736.8853
533.1  4056.8305
533  3304.0935
532.9  2876.4547
532.8  2373.597
532.7  1865.8359
532.6  1676.9786
532.5  1442.9998
532.4  1224.1458
532.3  1013.2943
532.2  915.16864
532.1  854.27386
532  788.82336
531.9  747.93953
531.8  699.04157
531.7  627.79926
531.6  657.46749
531.5  607.15956
531.4  531.17954
531.3  538.31046
531.2  524.58229
531.1  524.68081
531  538.09315
530.9  483.70348
530.8  515.79488
530.7  554.93691
530.6  523.63001
530.5  465.66381
530.4  436.57713
530.3  496.23457
530.2  485.69111
530.1  440.0379
530  454.79639
529.9  431.99687
529.8  427.81108
529.7  462.08447
529.6  432.31819
529.5  443.95565
529.4  438.10131
529.3  435.69028
529.2  419.33823
529.1  420.00508
529  428.5004
528.9  431.17023
528.8  412.30897
528.7  411.89813
528.6  391.79752
528.5  380.38966
528.4  409.36259
528.3  426.04803
528.2  441.72352
528.1  451.08621
528  448.56468
527.9  399.91841
527.8  415.99996
527.7  464.56686
527.6  413.91152
527.5  420.5184
527.4  389.80409
527.3  411.73715
527.2  391.38539
527.1  371.37731
527  400.89215
526.9  405.93691
526.8  420.87866
526.7  453.44677
526.6  433.74761
526.5  448.65162
526.4  421.5161
526.3  407.09478
526.2  384.39147
526.1  397.09682
526  424.131
525.9  416.4202
525.8  422.50078
525.7  455.47577
525.6  423.0319
525.5  425.5392
525.4  421.42953
525.3  417.76598
525.2  410.21425
525.1  418.83106
525  413.39697
524.9  390.6575
524.8  400.7046
524.7  416.13243
524.6  426.38279
524.5  425.21459
524.4  407.36023
524.3  421.70212
524.2  415.50451
524.1  407.69941
524  411.83187
523.9  407.90992
523.8  390.61501
523.7  404.27898
523.6  403.41735
523.5  409.73887
523.4  410.91852
523.3  415.93463
523.2  404.77177
523.1  415.4977
523  407.77672
522.9  399.59786
522.8  431.3476
522.7  420.71839
522.6  390.37291
522.5  404.91538
522.4  393.44435
522.3  394.60341
522.2  368.7259
522.1  420.21392
522  406.8682
521.9  406.90269
521.8  382.57156
521.7  346.4327
521.6  379.05556
521.5  368.52347
521.4  369.08157
521.3  393.71797
521.2  386.16029
521.1  388.21697
521  327.19968
520.9  377.53379
520.8  359.97419
520.7  344.05365
520.6  375.67268
520.5  367.32306
520.4  353.07744
520.3  368.12758
520.2  393.75797
520.1  414.39974
520  384.36897