# Region:            O1s (2)
# Acquisition Date:  11/07/19 21:21:11 UTC
# Analysis Method:   XPS
# Analyzer:          Phoibos
# Analyzer Lens:     MediumArea:1.5kV
# Analyzer Slit:     4:3x20\B:open
# Scan Mode:         FixedAnalyzerTransmission
# Curves/Scan:       1
# Values/Curve:      211
# Dwell Time:        0.1
# Excitation Energy: 1486.71
# Binding Energy:    541
# Pass Energy:       10
# Bias Voltage:      90
# Detector Voltage:  1900
# Eff. Workfunction: 4.395
# Source:            Focus
# Comment:           
#
# Cycle: 0
# Number of Scans: 8
#
# Cycle: 0, Curve: 0
# Acquisition Date: 11/07/19 21:21:11 UTC
#
# ColumnLabels: energy counts/s
#
541  570.31903
540.9  554.23113
540.8  518.87045
540.7  569.97608
540.6  550.2973
540.5  494.45647
540.4  565.56257
540.3  500.42519
540.2  459.83308
540.1  495.79757
540  554.86797
539.9  554.46891
539.8  547.3944
539.7  536.94619
539.6  521.37813
539.5  521.96107
539.4  510.37598
539.3  489.38647
539.2  533.12853
539.1  557.35257
539  564.4677
538.9  527.59953
538.8  500.88599
538.7  492.78536
538.6  470.20331
538.5  499.09569
538.4  521.06709
538.3  492.33568
538.2  535.83217
538.1  532.49172
538  507.17974
537.9  482.90968
537.8  468.94233
537.7  521.44086
537.6  524.35111
537.5  551.99047
537.4  546.14491
537.3  572.67863
537.2  560.1458
537.1  583.70901
537  679.57071
536.9  675.68463
536.8  720.41856
536.7  739.89273
536.6  804.20544
536.5  891.61236
536.4  986.76538
536.3  1121.554
536.2  1243.7615
536.1  1474.351
536  1647.9057
535.9  2002.6392
535.8  2475.2539
535.7  2775.0113
535.6  3210.5226
535.5  3655.7013
535.4  4508.7775
535.3  5151.2989
535.2  5705.5395
535.1  6546.8795
535  7149.2758
534.9  8219.7833
534.8  9032.8897
534.7  9609.7432
534.6  10046.968
534.5  10546.966
534.4  10757.966
534.3  10747.712
534.2  10611.743
534.1  10395.876
534  9847.8872
533.9  9365.2811
533.8  8609.5834
533.7  7828.1293
533.6  6975.7547
533.5  6027.0608
533.4  5292.87
533.3  4437.6199
533.2  3732.4692
533.1  3132.863
533  2635.07
532.9  2284.9314
532.8  1833.1195
532.7  1550.9045
532.6  1297.3264
532.5  1203.0699
532.4  1043.3631
532.3  898.51776
532.2  793.06071
532.1  776.58755
532  701.02921
531.9  669.80719
531.8  619.3763
531.7  606.7298
531.6  628.31993
531.5  615.74955
531.4  533.37316
531.3  512.12497
531.2  510.8011
531.1  533.36332
531  474.12159
530.9  470.66518
530.8  477.86595
530.7  482.18852
530.6  477.6908
530.5  494.19333
530.4  464.42645
530.3  463.25513
530.2  448.07181
530.1  449.1324
530  496.26445
529.9  486.891
529.8  448.44905
529.7  399.40423
529.6  432.70386
529.5  424.53462
529.4  414.83954
529.3  401.89753
529.2  468.93468
529.1  452.42259
529  437.52419
528.9  408.25596
528.8  404.85723
528.7  456.19678
528.6  443.24553
528.5  409.39737
528.4  429.01463
528.3  413.26831
528.2  433.18673
528.1  419.91882
528  421.65001
527.9  415.88177
527.8  404.09356
527.7  406.31356
527.6  399.10423
527.5  405.57143
527.4  415.36991
527.3  390.95456
527.2  414.71028
527.1  385.15066
527  427.7806
526.9  423.18673
526.8  436.10655
526.7  442.93152
526.6  424.94927
526.5  430.77969
526.4  435.83814
526.3  408.39705
526.2  429.63102
526.1  411.81466
526  418.24514
525.9  443.47251
525.8  400.13802
525.7  427.25691
525.6  435.14902
525.5  411.31098
525.4  416.12257
525.3  440.98847
525.2  422.49555
525.1  377.2849
525  389.3357
524.9  387.78829
524.8  382.78529
524.7  417.31027
524.6  451.03997
524.5  432.04508
524.4  433.90559
524.3  436.89418
524.2  390.06864
524.1  406.51362
524  408.40783
523.9  411.17529
523.8  401.98584
523.7  393.3726
523.6  433.4407
523.5  413.71628
523.4  432.57309
523.3  418.56849
523.2  397.97706
523.1  360.86152
523  382.29752
522.9  395.74767
522.8  401.19216
522.7  401.92778
522.6  375.73254
522.5  418.58069
522.4  451.61502
522.3  390.16175
522.2  391.87711
522.1  395.81052
522  401.78676
521.9  396.45622
521.8  406.07746
521.7  398.94508
521.6  371.75531
521.5  351.16078
521.4  364.63914
521.3  393.56776
521.2  400.85657
521.1  411.41714
521  401.4276
520.9  385.48357
520.8  406.76677
520.7  410.66767
520.6  386.71154
520.5  428.64485
520.4  372.23734
520.3  409.82734
520.2  387.81821
520.1  406.21789
520  428.18215