# Region:            O1s (37)
# Acquisition Date:  11/09/19 00:13:15 UTC
# Analysis Method:   XPS
# Analyzer:          Phoibos
# Analyzer Lens:     MediumArea:1.5kV
# Analyzer Slit:     4:3x20\B:open
# Scan Mode:         FixedAnalyzerTransmission
# Curves/Scan:       1
# Values/Curve:      211
# Dwell Time:        0.1
# Excitation Energy: 1486.71
# Binding Energy:    541
# Pass Energy:       10
# Bias Voltage:      90
# Detector Voltage:  1900
# Eff. Workfunction: 4.395
# Source:            Focus
# Comment:           15 grados
#
# Cycle: 0
# Number of Scans: 8
#
# Cycle: 0, Curve: 0
# Acquisition Date: 11/09/19 00:13:15 UTC
#
# ColumnLabels: energy counts/s
#
541  677.8362
540.9  652.38612
540.8  628.85928
540.7  583.35763
540.6  625.23251
540.5  664.38378
540.4  627.31228
540.3  636.67718
540.2  639.85477
540.1  619.78198
540  629.11972
539.9  617.31866
539.8  623.94735
539.7  615.33668
539.6  591.77414
539.5  626.26929
539.4  643.8103
539.3  614.36057
539.2  612.46364
539.1  606.2932
539  616.71556
538.9  633.0135
538.8  612.44745
538.7  590.08255
538.6  602.56788
538.5  583.71406
538.4  599.42752
538.3  602.97701
538.2  591.2564
538.1  570.56229
538  563.86272
537.9  576.85422
537.8  563.4432
537.7  620.70707
537.6  582.50124
537.5  590.46506
537.4  609.23016
537.3  601.02624
537.2  627.24598
537.1  600.02692
537  597.59033
536.9  577.2103
536.8  562.34866
536.7  572.61655
536.6  570.81309
536.5  551.75111
536.4  535.42483
536.3  565.82538
536.2  565.76009
536.1  527.72921
536  588.89372
535.9  570.05063
535.8  589.12107
535.7  611.88375
535.6  613.01261
535.5  624.17358
535.4  592.20574
535.3  644.86662
535.2  662.6802
535.1  771.8333
535  787.24631
534.9  901.57105
534.8  909.2244
534.7  1068.9611
534.6  1127.2929
534.5  1302.5587
534.4  1590.3076
534.3  1907.4686
534.2  2188.5494
534.1  2525.5394
534  3000.2887
533.9  3563.3352
533.8  4036.0709
533.7  4511.3817
533.6  5243.0076
533.5  5694.6706
533.4  6219.8071
533.3  6663.9363
533.2  7207.2248
533.1  7493.4208
533  7324.587
532.9  7385.4257
532.8  7248.0281
532.7  6752.3518
532.6  6448.6188
532.5  5905.7499
532.4  5258.724
532.3  4651.8333
532.2  4138.0907
532.1  3660.5406
532  3148.8129
531.9  2698.4042
531.8  2335.5502
531.7  2036.3383
531.6  1748.0921
531.5  1478.0805
531.4  1311.6811
531.3  1149.6319
531.2  1006.7168
531.1  864.4901
531  811.71531
530.9  685.92407
530.8  667.22047
530.7  633.0341
530.6  598.08429
530.5  549.9367
530.4  548.01299
530.3  619.32125
530.2  536.45294
530.1  544.48697
530  511.59127
529.9  505.5421
529.8  489.64431
529.7  483.8041
529.6  516.61489
529.5  463.32503
529.4  478.10989
529.3  537.32816
529.2  498.32275
529.1  464.28482
529  451.88231
528.9  467.20782
528.8  480.04985
528.7  457.83426
528.6  464.0801
528.5  460.33038
528.4  461.95688
528.3  464.69284
528.2  453.90538
528.1  463.35924
528  477.68705
527.9  466.64349
527.8  424.20131
527.7  441.40566
527.6  481.18134
527.5  434.63624
527.4  458.90752
527.3  449.32895
527.2  432.56929
527.1  451.80342
527  414.39648
526.9  439.7388
526.8  444.17057
526.7  447.84565
526.6  483.32315
526.5  450.20423
526.4  441.78598
526.3  436.90309
526.2  459.22941
526.1  445.90778
526  437.25221
525.9  440.55802
525.8  463.08101
525.7  467.10248
525.6  459.0187
525.5  396.52988
525.4  431.26113
525.3  412.92979
525.2  452.63058
525.1  472.01984
525  452.40364
524.9  452.73106
524.8  436.05511
524.7  394.58221
524.6  442.42964
524.5  416.77111
524.4  420.97421
524.3  437.13679
524.2  457.34423
524.1  475.35369
524  432.43784
523.9  454.07986
523.8  438.90002
523.7  457.84487
523.6  432.86211
523.5  476.99642
523.4  468.24274
523.3  445.64974
523.2  444.44637
523.1  436.75264
523  412.03441
522.9  404.02777
522.8  465.06351
522.7  408.05917
522.6  442.33775
522.5  458.75862
522.4  466.83199
522.3  416.1381
522.2  459.00775
522.1  456.24909
522  419.00025
521.9  426.67927
521.8  415.72161
521.7  415.28159
521.6  403.19982
521.5  461.31288
521.4  472.85718
521.3  465.23857
521.2  415.25199
521.1  458.6085
521  454.06616
520.9  447.88632
520.8  487.22172
520.7  437.98387
520.6  438.6712
520.5  440.84405
520.4  466.43192
520.3  455.77919
520.2  456.10036
520.1  452.04133
520  436.07957