# Region:            O1s (34)
# Acquisition Date:  11/08/19 22:52:52 UTC
# Analysis Method:   XPS
# Analyzer:          Phoibos
# Analyzer Lens:     MediumArea:1.5kV
# Analyzer Slit:     4:3x20\B:open
# Scan Mode:         FixedAnalyzerTransmission
# Curves/Scan:       1
# Values/Curve:      211
# Dwell Time:        0.1
# Excitation Energy: 1486.71
# Binding Energy:    541
# Pass Energy:       10
# Bias Voltage:      90
# Detector Voltage:  1900
# Eff. Workfunction: 4.395
# Source:            Focus
# Comment:           55 grados
#
# Cycle: 0
# Number of Scans: 8
#
# Cycle: 0, Curve: 0
# Acquisition Date: 11/08/19 22:52:52 UTC
#
# ColumnLabels: energy counts/s
#
541  312.64528
540.9  362.19418
540.8  367.62356
540.7  320.1811
540.6  300.66418
540.5  318.82238
540.4  342.44059
540.3  363.81376
540.2  337.44908
540.1  320.08625
540  308.85646
539.9  305.8643
539.8  313.35513
539.7  339.9945
539.6  302.42808
539.5  320.39226
539.4  283.11636
539.3  284.44289
539.2  287.06295
539.1  266.24826
539  294.85306
538.9  298.23871
538.8  304.10287
538.7  285.1897
538.6  265.50456
538.5  279.57742
538.4  299.11458
538.3  310.9066
538.2  311.46985
538.1  275.60002
538  259.78654
537.9  266.55181
537.8  270.61861
537.7  276.30061
537.6  315.81888
537.5  288.20849
537.4  283.25506
537.3  286.34134
537.2  290.18671
537.1  302.72357
537  300.39865
536.9  301.44701
536.8  280.16464
536.7  307.09186
536.6  289.9947
536.5  291.97429
536.4  284.96588
536.3  325.51415
536.2  343.64364
536.1  352.13026
536  369.11881
535.9  408.67474
535.8  442.53702
535.7  469.24766
535.6  545.63393
535.5  614.93006
535.4  654.51293
535.3  850.59635
535.2  1024.9695
535.1  1183.0966
535  1445.1963
534.9  1773.7218
534.8  1994.2197
534.7  2325.0751
534.6  2797.6496
534.5  3252.9764
534.4  3713.7718
534.3  4195.3646
534.2  4694.5054
534.1  5055.8766
534  5372.3239
533.9  5807.1607
533.8  6003.0701
533.7  6008.8855
533.6  5842.6936
533.5  5733.5324
533.4  5214.6813
533.3  4928.6371
533.2  4428.1016
533.1  3892.3264
533  3381.1346
532.9  2858.2623
532.8  2313.1188
532.7  1949.4633
532.6  1637.0593
532.5  1331.0796
532.4  1066.6404
532.3  916.75023
532.2  736.64314
532.1  620.1144
532  547.03809
531.9  435.38116
531.8  432.43478
531.7  414.90592
531.6  387.41964
531.5  354.59606
531.4  327.878
531.3  355.43492
531.2  337.03599
531.1  309.70074
531  301.6509
530.9  275.4611
530.8  305.81363
530.7  270.3962
530.6  253.69659
530.5  208.48294
530.4  224.57264
530.3  281.64856
530.2  247.12331
530.1  235.41805
530  225.74786
529.9  242.91112
529.8  234.49514
529.7  219.39061
529.6  225.02024
529.5  246.48236
529.4  254.60058
529.3  239.01415
529.2  214.2527
529.1  195.77446
529  215.8773
528.9  242.20349
528.8  209.99897
528.7  224.54922
528.6  238.09512
528.5  224.43392
528.4  210.08939
528.3  234.91813
528.2  239.16826
528.1  249.85594
528  257.02859
527.9  222.65926
527.8  217.45587
527.7  207.91868
527.6  227.19435
527.5  224.26009
527.4  204.49712
527.3  282.60284
527.2  267.23211
527.1  248.02632
527  205.88747
526.9  244.62546
526.8  207.16946
526.7  202.59484
526.6  209.5079
526.5  217.05113
526.4  209.52273
526.3  229.02918
526.2  214.87258
526.1  222.79008
526  214.59897
525.9  216.62467
525.8  238.20287
525.7  240.57626
525.6  215.91866
525.5  226.0666
525.4  215.85967
525.3  252.11238
525.2  243.60401
525.1  228.77932
525  205.6874
524.9  200.37215
524.8  204.80668
524.7  206.63254
524.6  207.95622
524.5  222.31168
524.4  239.41058
524.3  210.2305
524.2  235.13422
524.1  231.38567
524  219.5179
523.9  227.26316
523.8  228.36525
523.7  223.77351
523.6  228.55309
523.5  219.41201
523.4  208.60884
523.3  184.54071
523.2  216.84945
523.1  239.93128
523  202.14304
522.9  204.64569
522.8  226.11695
522.7  237.69709
522.6  207.13653
522.5  226.22863
522.4  237.75361
522.3  222.60291
522.2  210.20402
522.1  210.80669
522  238.74673
521.9  210.36969
521.8  236.20717
521.7  234.82421
521.6  230.84241
521.5  213.02149
521.4  232.00511
521.3  208.3285
521.2  228.75899
521.1  229.3238
521  226.43333
520.9  204.01826
520.8  223.67136
520.7  244.76884
520.6  223.06683
520.5  231.20342
520.4  207.72314
520.3  214.19246
520.2  213.59345
520.1  241.68229
520  212.7539