# Region:            O1s (61)
# Acquisition Date:  11/11/19 19:32:34 UTC
# Analysis Method:   XPS
# Analyzer:          Phoibos
# Analyzer Lens:     MediumArea:1.5kV
# Analyzer Slit:     4:3x20\B:open
# Scan Mode:         FixedAnalyzerTransmission
# Curves/Scan:       1
# Values/Curve:      211
# Dwell Time:        0.1
# Excitation Energy: 1486.71
# Binding Energy:    541
# Pass Energy:       10
# Bias Voltage:      90
# Detector Voltage:  1900
# Eff. Workfunction: 4.395
# Source:            Focus
# Comment:           45 grados
#
# Cycle: 0
# Number of Scans: 8
#
# Cycle: 0, Curve: 0
# Acquisition Date: 11/11/19 19:32:34 UTC
#
# ColumnLabels: energy counts/s
#
541  322.92468
540.9  333.38844
540.8  292.01449
540.7  329.21446
540.6  345.76578
540.5  335.09838
540.4  310.37078
540.3  325.39922
540.2  319.26077
540.1  301.82972
540  339.42592
539.9  359.66
539.8  355.47842
539.7  346.65546
539.6  328.73245
539.5  367.63855
539.4  353.27321
539.3  282.21944
539.2  306.70639
539.1  302.25667
539  335.14881
538.9  323.86958
538.8  322.88146
538.7  338.51322
538.6  371.55687
538.5  338.22967
538.4  326.67778
538.3  322.1608
538.2  288.09935
538.1  318.30303
538  304.6354
537.9  322.24887
537.8  303.27622
537.7  288.75667
537.6  307.55135
537.5  332.07606
537.4  334.3639
537.3  305.7349
537.2  325.02108
537.1  324.09674
537  312.47953
536.9  342.67803
536.8  311.31475
536.7  338.24184
536.6  298.24791
536.5  300.80631
536.4  291.38281
536.3  292.31226
536.2  296.71631
536.1  293.39138
536  298.67414
535.9  320.91676
535.8  311.84536
535.7  327.0584
535.6  300.46718
535.5  313.22372
535.4  297.51532
535.3  273.86979
535.2  296.68697
535.1  290.95409
535  324.58747
534.9  328.5
534.8  334.68502
534.7  344.66096
534.6  322.04966
534.5  345.6098
534.4  331.13083
534.3  317.55568
534.2  306.6834
534.1  338.56226
534  336.65867
533.9  389.35307
533.8  399.87893
533.7  358.80134
533.6  346.57417
533.5  336.76573
533.4  406.58826
533.3  389.49261
533.2  413.67525
533.1  388.19565
533  433.08394
532.9  440.67373
532.8  455.75862
532.7  481.03348
532.6  562.97156
532.5  583.42238
532.4  644.643
532.3  713.96535
532.2  696.45733
532.1  752.37164
532  849.23544
531.9  860.14399
531.8  919.87986
531.7  937.14373
531.6  1007.3258
531.5  964.27042
531.4  957.16825
531.3  937.2771
531.2  912.41561
531.1  808.96892
531  697.07893
530.9  608.56784
530.8  536.80668
530.7  492.68794
530.6  436.77169
530.5  393.20924
530.4  372.89741
530.3  333.02613
530.2  335.59221
530.1  324.4979
530  337.04856
529.9  294.86665
529.8  322.94345
529.7  317.40259
529.6  311.30745
529.5  274.01084
529.4  330.92439
529.3  318.56926
529.2  282.28335
529.1  288.89437
529  295.20581
528.9  300.20997
528.8  295.9233
528.7  291.31539
528.6  282.6445
528.5  298.18654
528.4  293.99392
528.3  291.41702
528.2  280.58895
528.1  298.77909
528  271.73519
527.9  245.16484
527.8  271.91734
527.7  271.26157
527.6  301.97845
527.5  284.74341
527.4  263.34049
527.3  289.89335
527.2  303.10653
527.1  287.80462
527  299.16563
526.9  292.5879
526.8  303.21684
526.7  288.89756
526.6  279.76557
526.5  299.04095
526.4  308.54859
526.3  313.03903
526.2  291.71366
526.1  289.62443
526  274.82827
525.9  308.9964
525.8  277.75955
525.7  258.43234
525.6  276.06871
525.5  306.54074
525.4  290.77182
525.3  279.45598
525.2  301.1042
525.1  313.45757
525  295.64832
524.9  294.30763
524.8  322.25495
524.7  281.6412
524.6  269.2154
524.5  297.0284
524.4  270.17568
524.3  256.72496
524.2  295.66684
524.1  256.83422
524  272.18652
523.9  296.02681
523.8  304.11738
523.7  265.08678
523.6  259.87304
523.5  291.75087
523.4  292.59739
523.3  306.2766
523.2  287.87918
523.1  282.23488
523  285.77788
522.9  286.82766
522.8  318.05447
522.7  289.08629
522.6  300.17859
522.5  298.67829
522.4  286.95922
522.3  279.56949
522.2  276.10626
522.1  264.63853
522  270.2677
521.9  265.99361
521.8  275.31337
521.7  287.83909
521.6  281.37309
521.5  284.75558
521.4  267.09653
521.3  248.08239
521.2  270.31448
521.1  278.94686
521  293.30057
520.9  269.53737
520.8  287.95936
520.7  314.92503
520.6  293.28069
520.5  305.79453
520.4  314.96826
520.3  297.75526
520.2  314.21925
520.1  299.89888
520  331.66275