# Region:            O1s (55)
# Acquisition Date:  11/11/19 17:26:18 UTC
# Analysis Method:   XPS
# Analyzer:          Phoibos
# Analyzer Lens:     MediumArea:1.5kV
# Analyzer Slit:     4:3x20\B:open
# Scan Mode:         FixedAnalyzerTransmission
# Curves/Scan:       1
# Values/Curve:      211
# Dwell Time:        0.1
# Excitation Energy: 1486.71
# Binding Energy:    541
# Pass Energy:       10
# Bias Voltage:      90
# Detector Voltage:  1900
# Eff. Workfunction: 4.395
# Source:            Focus
# Comment:           55 grados
#
# Cycle: 0
# Number of Scans: 8
#
# Cycle: 0, Curve: 0
# Acquisition Date: 11/11/19 17:26:18 UTC
#
# ColumnLabels: energy counts/s
#
541  330.30947
540.9  319.03883
540.8  331.5714
540.7  332.71401
540.6  313.73017
540.5  321.00672
540.4  342.12608
540.3  317.06152
540.2  310.04441
540.1  354.2372
540  355.4151
539.9  362.36615
539.8  349.09336
539.7  355.76767
539.6  324.66531
539.5  295.10178
539.4  312.66834
539.3  351.1051
539.2  327.39307
539.1  318.55777
539  295.87514
538.9  338.24405
538.8  325.38661
538.7  320.25884
538.6  320.79498
538.5  325.89945
538.4  330.92396
538.3  319.15397
538.2  324.18292
538.1  335.78573
538  312.88906
537.9  322.91054
537.8  310.35607
537.7  345.99068
537.6  344.50203
537.5  306.48656
537.4  324.24084
537.3  334.84018
537.2  365.61841
537.1  316.5059
537  308.24095
536.9  332.72479
536.8  325.51002
536.7  338.13674
536.6  332.15726
536.5  338.58746
536.4  310.42565
536.3  327.95302
536.2  308.1804
536.1  320.17071
536  315.02125
535.9  346.29762
535.8  346.31004
535.7  320.07303
535.6  334.98745
535.5  332.33757
535.4  312.05581
535.3  284.98612
535.2  313.52052
535.1  343.073
535  332.66604
534.9  336.68638
534.8  346.88224
534.7  343.12968
534.6  374.40641
534.5  343.74098
534.4  324.72671
534.3  359.29696
534.2  386.84647
534.1  403.23452
534  474.1955
533.9  499.19856
533.8  517.20673
533.7  619.40352
533.6  632.23735
533.5  718.84916
533.4  749.61791
533.3  838.11055
533.2  936.6491
533.1  1051.5518
533  1171.5184
532.9  1267.2968
532.8  1371.8207
532.7  1422.5155
532.6  1529.3748
532.5  1599.921
532.4  1738.3418
532.3  1755.0409
532.2  1859.4507
532.1  1858.69
532  1824.5008
531.9  1875.128
531.8  1792.8389
531.7  1694.3434
531.6  1646.7958
531.5  1470.36
531.4  1319.1741
531.3  1167.9958
531.2  962.82005
531.1  782.10208
531  707.22294
530.9  575.22857
530.8  532.63587
530.7  416.53342
530.6  380.51343
530.5  341.56943
530.4  324.60668
530.3  278.17093
530.2  287.76902
530.1  304.98449
530  313.6413
529.9  297.96022
529.8  269.67877
529.7  257.37087
529.6  264.53833
529.5  306.52951
529.4  297.26616
529.3  266.25734
529.2  279.34386
529.1  263.12515
529  246.94373
528.9  261.96739
528.8  264.55366
528.7  270.93525
528.6  259.19595
528.5  263.41338
528.4  249.32555
528.3  243.7191
528.2  255.1185
528.1  245.22612
528  261.92395
527.9  261.08603
527.8  279.53651
527.7  254.27491
527.6  274.32103
527.5  277.11272
527.4  284.14038
527.3  245.49568
527.2  279.17933
527.1  256.15763
527  274.68438
526.9  263.85033
526.8  278.63859
526.7  298.47244
526.6  249.61148
526.5  257.21446
526.4  262.14572
526.3  246.24663
526.2  239.2002
526.1  286.16237
526  275.16793
525.9  269.22306
525.8  275.69905
525.7  273.66739
525.6  291.67629
525.5  266.1413
525.4  266.48506
525.3  266.66638
525.2  279.66252
525.1  235.4121
525  229.7766
524.9  265.5389
524.8  250.27193
524.7  241.70744
524.6  239.53459
524.5  251.23107
524.4  282.4224
524.3  241.14297
524.2  250.25714
524.1  260.7132
524  280.63847
523.9  294.96877
523.8  274.87806
523.7  246.42756
523.6  267.71549
523.5  287.06371
523.4  259.70054
523.3  266.40449
523.2  286.31406
523.1  259.01242
523  250.62007
522.9  257.50847
522.8  256.00495
522.7  265.24114
522.6  264.96463
522.5  246.87267
522.4  242.15341
522.3  242.58105
522.2  271.70691
522.1  268.82345
522  261.31342
521.9  298.25263
521.8  247.84041
521.7  276.87177
521.6  275.12096
521.5  273.5451
521.4  256.29467
521.3  269.55307
521.2  257.38747
521.1  283.71188
521  255.15221
520.9  240.00228
520.8  230.40052
520.7  237.14736
520.6  266.99292
520.5  248.50873
520.4  280.40913
520.3  252.37899
520.2  247.84945
520.1  244.45561
520  291.42738