# Region:            O1s (60)
# Acquisition Date:  11/11/19 19:19:25 UTC
# Analysis Method:   XPS
# Analyzer:          Phoibos
# Analyzer Lens:     MediumArea:1.5kV
# Analyzer Slit:     4:3x20\B:open
# Scan Mode:         FixedAnalyzerTransmission
# Curves/Scan:       1
# Values/Curve:      211
# Dwell Time:        0.1
# Excitation Energy: 1486.71
# Binding Energy:    541
# Pass Energy:       10
# Bias Voltage:      90
# Detector Voltage:  1900
# Eff. Workfunction: 4.395
# Source:            Focus
# Comment:           35 grados
#
# Cycle: 0
# Number of Scans: 8
#
# Cycle: 0, Curve: 0
# Acquisition Date: 11/11/19 19:19:25 UTC
#
# ColumnLabels: energy counts/s
#
541  345.8583
540.9  350.14291
540.8  338.42768
540.7  335.63779
540.6  358.89721
540.5  365.57879
540.4  353.60914
540.3  336.52032
540.2  368.28787
540.1  382.80419
540  312.15416
539.9  334.47704
539.8  354.71871
539.7  354.37901
539.6  342.82744
539.5  312.30671
539.4  337.14448
539.3  346.55555
539.2  336.20653
539.1  334.56504
539  316.89519
538.9  354.30805
538.8  351.55656
538.7  371.1754
538.6  329.47371
538.5  357.00527
538.4  340.91436
538.3  312.69739
538.2  342.63458
538.1  373.22451
538  364.32084
537.9  360.73726
537.8  372.52803
537.7  353.30316
537.6  336.11582
537.5  335.99592
537.4  357.20712
537.3  348.50819
537.2  378.298
537.1  357.37895
537  329.3634
536.9  357.45097
536.8  348.79805
536.7  324.26917
536.6  338.31613
536.5  321.97051
536.4  336.61478
536.3  342.6308
536.2  362.72601
536.1  347.25368
536  388.38959
535.9  367.11762
535.8  297.7087
535.7  332.28808
535.6  344.44941
535.5  353.0729
535.4  334.04835
535.3  372.04502
535.2  323.80111
535.1  335.48933
535  353.17804
534.9  355.91547
534.8  368.81972
534.7  390.87009
534.6  391.74602
534.5  364.12698
534.4  340.59916
534.3  356.60721
534.2  381.75167
534.1  351.00651
534  370.23699
533.9  406.06653
533.8  432.24341
533.7  409.53698
533.6  437.95371
533.5  464.80774
533.4  436.11904
533.3  469.82168
533.2  483.40283
533.1  472.07628
533  513.56167
532.9  531.93989
532.8  587.47912
532.7  563.13013
532.6  637.96737
532.5  682.15241
532.4  710.84619
532.3  742.67582
532.2  817.98396
532.1  827.68457
532  917.98017
531.9  1004.0354
531.8  1043.3684
531.7  1050.0181
531.6  1042.8575
531.5  1066.0021
531.4  1044.3029
531.3  1006.0928
531.2  941.36637
531.1  835.56661
531  681.75465
530.9  583.89603
530.8  520.15077
530.7  480.43637
530.6  413.17157
530.5  374.99616
530.4  328.645
530.3  353.80581
530.2  344.50999
530.1  342.67526
530  345.17243
529.9  318.01325
529.8  307.0023
529.7  318.74972
529.6  321.23032
529.5  314.46535
529.4  304.91827
529.3  334.27037
529.2  328.86505
529.1  343.82295
529  344.14134
528.9  338.35374
528.8  340.95112
528.7  331.49689
528.6  320.44497
528.5  339.73869
528.4  320.95517
528.3  283.23012
528.2  332.53231
528.1  311.48877
528  313.35475
527.9  285.1597
527.8  290.51265
527.7  343.70907
527.6  327.46541
527.5  318.18514
527.4  302.60744
527.3  301.79465
527.2  343.40716
527.1  329.34932
527  316.46532
526.9  334.56531
526.8  316.03862
526.7  321.23277
526.6  327.36245
526.5  297.51538
526.4  293.90762
526.3  322.47325
526.2  323.85241
526.1  328.51581
526  317.52862
525.9  319.71167
525.8  302.44684
525.7  294.37248
525.6  290.98118
525.5  321.1541
525.4  336.92939
525.3  325.1696
525.2  318.18329
525.1  296.69149
525  297.69919
524.9  303.19618
524.8  293.8874
524.7  338.94518
524.6  336.73794
524.5  332.77745
524.4  304.03046
524.3  280.11046
524.2  288.84193
524.1  337.64015
524  354.39313
523.9  324.29117
523.8  311.17149
523.7  308.1727
523.6  265.71191
523.5  296.02493
523.4  321.29583
523.3  294.65974
523.2  300.34183
523.1  326.12669
523  303.64386
522.9  306.65028
522.8  326.03821
522.7  319.79035
522.6  291.76576
522.5  304.65849
522.4  334.72587
522.3  299.77344
522.2  285.12812
522.1  311.94081
522  310.61128
521.9  297.78598
521.8  314.96613
521.7  328.0013
521.6  334.52225
521.5  302.00936
521.4  296.14324
521.3  322.6373
521.2  331.45804
521.1  321.3927
521  303.64007
520.9  326.34994
520.8  307.29135
520.7  284.71931
520.6  306.5054
520.5  315.15628
520.4  302.00858
520.3  291.96724
520.2  316.43606
520.1  327.58389
520  307.27721