# Region:            O1s (70)
# Acquisition Date:  11/11/19 22:03:02 UTC
# Analysis Method:   XPS
# Analyzer:          Phoibos
# Analyzer Lens:     MediumArea:1.5kV
# Analyzer Slit:     4:3x20\B:open
# Scan Mode:         FixedAnalyzerTransmission
# Curves/Scan:       1
# Values/Curve:      211
# Dwell Time:        0.1
# Excitation Energy: 1486.71
# Binding Energy:    541
# Pass Energy:       10
# Bias Voltage:      90
# Detector Voltage:  1900
# Eff. Workfunction: 4.395
# Source:            Focus
# Comment:           0 grados
#
# Cycle: 0
# Number of Scans: 8
#
# Cycle: 0, Curve: 0
# Acquisition Date: 11/11/19 22:03:02 UTC
#
# ColumnLabels: energy counts/s
#
541  554.05435
540.9  506.51492
540.8  507.81419
540.7  534.89242
540.6  509.26859
540.5  516.72314
540.4  507.32341
540.3  505.11279
540.2  503.77699
540.1  558.88121
540  543.74408
539.9  547.91183
539.8  551.79612
539.7  543.82045
539.6  520.84901
539.5  493.88548
539.4  525.41009
539.3  532.41639
539.2  487.92883
539.1  467.42966
539  451.83476
538.9  497.42971
538.8  486.95411
538.7  534.45349
538.6  526.7667
538.5  489.54475
538.4  485.99031
538.3  475.26858
538.2  487.87473
538.1  476.33682
538  501.66776
537.9  497.39938
537.8  445.40041
537.7  497.6437
537.6  469.43585
537.5  501.42202
537.4  505.5861
537.3  487.23233
537.2  491.7628
537.1  542.12842
537  560.44256
536.9  551.42311
536.8  519.43595
536.7  559.73748
536.6  494.86001
536.5  496.12084
536.4  512.31166
536.3  506.86048
536.2  507.95791
536.1  464.13967
536  487.99655
535.9  546.47416
535.8  521.08513
535.7  490.33761
535.6  499.96536
535.5  503.62308
535.4  513.81659
535.3  502.32248
535.2  512.57347
535.1  464.57742
535  515.42107
534.9  493.93476
534.8  478.03737
534.7  508.86823
534.6  515.37817
534.5  518.35916
534.4  491.34164
534.3  509.43346
534.2  521.6159
534.1  553.61722
534  566.90823
533.9  526.67615
533.8  557.7041
533.7  518.41468
533.6  528.91479
533.5  551.87976
533.4  541.56533
533.3  538.58113
533.2  540.49306
533.1  541.3095
533  567.19493
532.9  517.00615
532.8  515.84976
532.7  572.07019
532.6  588.51174
532.5  570.78877
532.4  594.82369
532.3  575.88982
532.2  566.20372
532.1  591.98453
532  672.47351
531.9  670.12872
531.8  737.94698
531.7  819.18762
531.6  851.0092
531.5  892.75324
531.4  983.05834
531.3  995.18465
531.2  983.71411
531.1  937.74385
531  947.45536
530.9  874.86723
530.8  745.0987
530.7  690.8514
530.6  654.23189
530.5  564.14376
530.4  542.23328
530.3  561.21128
530.2  529.64064
530.1  505.74854
530  541.23764
529.9  517.54845
529.8  518.63464
529.7  475.00738
529.6  453.40251
529.5  467.61307
529.4  482.28868
529.3  499.01342
529.2  441.14587
529.1  477.17916
529  497.13395
528.9  496.65057
528.8  456.20577
528.7  493.57908
528.6  503.88175
528.5  502.58406
528.4  490.13477
528.3  519.06218
528.2  488.86233
528.1  491.73806
528  511.33846
527.9  524.21794
527.8  492.06421
527.7  485.60259
527.6  492.50563
527.5  496.13036
527.4  516.25011
527.3  517.30723
527.2  470.38344
527.1  472.54539
527  471.15853
526.9  503.8379
526.8  508.7167
526.7  492.04309
526.6  486.35607
526.5  517.57137
526.4  483.62573
526.3  480.42599
526.2  493.83832
526.1  524.89826
526  450.98641
525.9  456.54651
525.8  506.83939
525.7  510.68098
525.6  499.30618
525.5  465.39624
525.4  495.97492
525.3  458.71707
525.2  495.54207
525.1  514.72252
525  501.3721
524.9  537.5049
524.8  528.0375
524.7  513.2228
524.6  504.89485
524.5  470.51318
524.4  488.62098
524.3  511.10599
524.2  488.54516
524.1  499.30673
524  491.73
523.9  475.16397
523.8  455.25618
523.7  517.93229
523.6  509.94814
523.5  449.03088
523.4  483.50762
523.3  476.62557
523.2  451.22179
523.1  491.83061
523  488.36606
522.9  520.77813
522.8  497.26921
522.7  501.22556
522.6  493.05861
522.5  517.36044
522.4  478.31031
522.3  492.5731
522.2  513.08672
522.1  505.49935
522  498.21366
521.9  450.48739
521.8  527.2474
521.7  464.95592
521.6  419.51628
521.5  483.07655
521.4  506.78978
521.3  507.12383
521.2  508.04738
521.1  496.03606
521  455.85942
520.9  489.12773
520.8  478.36859
520.7  512.07967
520.6  489.89777
520.5  484.5636
520.4  472.38308
520.3  466.78415
520.2  515.03024
520.1  479.28978
520  528.62711